Total Quantum Conductivity (W/m-K) = 	234.331	249.269	264.207
Total Classical Conductivity (W/m-K) = 	136088	160997	185906

Quantum <(Delta/omega)^2>^1/2 = 	0.0070506
Quantum <(Gamma/omega)^2>^1/2 = 	0.00024279

Classical <(Delta/omega)^2>^1/2 = 	0.00018072
Classical <(Gamma/omega)^2>^1/2 = 	2.12702e-05

Quantum effective MFP (nm) = 	2.63095e+06	2.65895e+06	2.68428e+06
Classical effective MFP (nm) = 	41314.8	46848.7	51941.6

Quantum RMS Displacements in Angstroms
Atom 0:
  0.0489117  0.0489117  0.0489117  :  0.0847175
Atom 1:
  0.0489117  0.0489117  0.0489117  :  0.0847175
Average Quantum RMS Displacement = 0.0847175

Classical RMS Displacements in Angstroms
Atom 0:
  0.0102268  0.0102268  0.0102268  :  0.0177133
Atom 1:
  0.0102268  0.0102268  0.0102268  :  0.0177133
Average Classical RMS Displacement = 0.0177133



Density of States and Frequency Dependence of Thermal Conductivity
Quantum						Classical
Anharm Freq (1/ps)	DOS (area = 1e12)	k-DOS (area = 1e12)		Anharm Freq (1/ps)	DOS (area = 1e12)	k-DOS (area = 1e12)
1.14355	0	0	0	0		1.14355	0	0	0	0
3.43066	0	0	0	0		3.43066	0	0	0	0
5.71777	0.00060457	0.426798	0.401629	0.379306		5.71777	0	0	0	0
8.00488	0.00103641	0.00949087	0.0346987	0.057056		8.00488	0.00112277	0.00434076	0.0242833	0.0388817
10.292	0.00215918	0.000757157	0.000668358	0.000589599		10.292	0.000518203	0.00448757	0.00252884	0.001095
12.5791	0.0026342	0.000184226	0.000234077	0.00027829		12.5791	0.00375697	0.0352792	0.0391571	0.0419958
14.8662	0.00155461	2.22633e-06	2.69985e-06	3.11982e-06		14.8662	0.00207281	0.00410862	0.00331344	0.00273134
17.1533	0.0063048	7.07343e-07	6.43009e-07	5.85949e-07		17.1533	0.00475019	0.022744	0.0210548	0.0198182
19.4404	0.00466382	2.54512e-08	2.42831e-08	2.32471e-08		19.4404	0.00673664	0.0251005	0.0285538	0.0310818
21.7275	0.0151142	1.0154e-09	9.85569e-10	9.59109e-10		21.7275	0.0057866	0.0530154	0.0435436	0.0366101
24.0146	0.0099754	1.12678e-11	1.39031e-11	1.62403e-11		24.0146	0.0117027	0.0618248	0.0611178	0.0606003
26.3017	0.0103641	5.57835e-13	6.33369e-13	7.00361e-13		26.3017	0.0127823	0.0570477	0.048508	0.0422568
28.5888	0.0276375	5.20859e-14	4.93313e-14	4.68883e-14		28.5888	0.0161507	0.0446176	0.0396052	0.035936
30.8759	0.0186553	7.55441e-16	8.16443e-16	8.70546e-16		30.8759	0.0228873	0.0388553	0.0406541	0.0419708
33.1631	0.0179212	2.19751e-17	2.62099e-17	2.9966e-17		33.1631	0.0145097	0.0114069	0.0165286	0.0202778
35.4502	0.0121778	4.91011e-19	5.42452e-19	5.88075e-19		35.4502	0.0205122	0.0263651	0.0263985	0.0264229
37.7373	0.0150279	6.10333e-21	7.92986e-21	9.54985e-21		37.7373	0.012696	0.00538933	0.00519519	0.00505308
40.0244	0.0108823	2.48766e-22	2.35186e-22	2.23141e-22		40.0244	0.0139915	0.00770731	0.00631282	0.00529201
42.3115	0.00518203	5.04753e-25	1.21849e-24	1.85152e-24		42.3115	0.00984585	0.00285728	0.00257139	0.0023621
44.5986	0.00133869	1.31978e-26	9.46755e-27	6.1591e-27		44.5986	0.00310922	0.00241188	0.00191693	0.00155461
46.8857	0.00440472	2.50835e-28	2.44845e-28	2.39531e-28		46.8857	0.00444791	0.00104545	0.000883706	0.000765304
49.1728	0.00362742	4.09241e-30	3.62636e-30	3.21302e-30		49.1728	0.00233191	0.000457229	0.000407254	0.00037067
51.4599	0.00621843	1.06234e-31	1.30256e-31	1.51561e-31		51.4599	0.00466382	0.00252248	0.00189672	0.00143866
53.747	0.00310922	2.99785e-34	3.43747e-34	3.82738e-34		53.747	0.00414562	0.00107647	0.000898711	0.000768586
56.0341	0.00652072	5.24128e-35	4.88905e-35	4.57666e-35		56.0341	0.00652072	0.00121952	0.00103083	0.000892713
58.3212	0.00958675	6.56338e-37	7.08037e-37	7.5389e-37		58.3212	0.00518203	0.00101546	0.000753228	0.000561268
60.6083	0.00518203	6.05057e-39	5.75604e-39	5.49482e-39		60.6083	0.00751394	0.00109504	0.0010026	0.000934937
62.8954	0.00518203	5.39884e-40	5.66541e-40	5.90184e-40		62.8954	0.00621843	0.000871478	0.000751934	0.000664425
65.1826	0.00444791	2.92964e-41	2.86928e-41	2.81574e-41		65.1826	0.00755712	0.000539696	0.000502133	0.000474635
67.4697	0.00440472	2.6048e-43	2.8513e-43	3.06992e-43		67.4697	0.00207281	0.000122847	0.000106824	9.50948e-05
69.7568	0.00103641	1.93064e-45	1.75176e-45	1.59312e-45		69.7568	0.00233191	0.000171246	0.000153098	0.000139813
72.0439	0.00133869	3.08852e-47	5.37667e-47	7.40608e-47		72.0439	0.00103641	1.25146e-05	1.01787e-05	8.46883e-06
74.331	0	0	0	0		74.331	0.00133869	3.65923e-05	3.98831e-05	4.22921e-05
76.6181	0.000259101	1.62963e-58	5.04177e-51	9.51344e-51		76.6181	0	0	0	0
78.9052	0	0	0	0		78.9052	0.000259101	3.97672e-13	1.10627e-05	1.91608e-05
81.1923	0	0	0	0		81.1923	0	0	0	0
83.4794	0	0	0	0		83.4794	0	0	0	0
85.7665	0.000561386	8.89379e-57	4.24134e-56	7.21428e-56		85.7665	0.000561386	7.75232e-05	9.14202e-05	0.000101593
88.0536	0.00414562	3.3882e-57	3.47438e-57	3.55082e-57		88.0536	0.00103641	7.80819e-05	7.30066e-05	6.92914e-05
90.3407	0.00652072	1.49381e-58	1.70663e-58	1.89539e-58		90.3407	0.00621843	0.000579229	0.000586738	0.000592235
92.6278	0.0137324	2.01576e-59	1.86583e-59	1.73286e-59		92.6278	0.0109254	0.000686207	0.000538256	0.000429953
94.915	0.00725484	4.91098e-61	4.09571e-61	3.37263e-61		94.915	0.0103641	0.00219546	0.00172204	0.00137549
97.2021	0.01248	1.13159e-62	1.05515e-62	9.87356e-63		97.2021	0.00621843	0.000499329	0.000445487	0.000406073
99.4892	0.0114005	1.78578e-64	1.86218e-64	1.92994e-64		99.4892	0.0129983	0.00184171	0.00152116	0.0012865
101.776	0.0236214	8.89399e-66	9.09228e-66	9.26814e-66		101.776	0.0160643	0.00100722	0.000877756	0.000782984
104.063	0.0480201	2.64856e-67	3.04509e-67	3.39678e-67		104.063	0.0280261	0.00299699	0.00303618	0.00306488
106.35	0.054109	1.81796e-68	1.66673e-68	1.5326e-68		106.35	0.0608025	0.00322234	0.00280654	0.00250217
108.638	0.0287171	1.84729e-70	1.88436e-70	1.91724e-70		108.638	0.0411539	0.00354373	0.00342592	0.00333968
110.925	0.00805373	1.2885e-72	1.27572e-72	1.26439e-72		110.925	0.0198213	0.00235989	0.00202979	0.00178814
113.212	0	0	0	0		113.212	0.00442631	0.000400528	0.00038766	0.000378241
115.499	0	0	0	0		115.499	0	0	0	0
