Total Quantum Conductivity (W/m-K) = 	571.81	571.767	571.81
Total Classical Conductivity (W/m-K) = 	482.146	482.111	482.146

Quantum <(Delta/omega)^2>^1/2 = 	0.010535
Quantum <(Gamma/omega)^2>^1/2 = 	0.00057638

Classical <(Delta/omega)^2>^1/2 = 	0.00849395
Classical <(Gamma/omega)^2>^1/2 = 	0.000597048

Quantum effective MFP (nm) = 	247.203	247.187	247.203
Classical effective MFP (nm) = 	166.775	166.764	166.775

Quantum RMS Displacements in Angstroms
Atom 0:
  0.0714229  0.0714229  0.0714229  :  0.123708
Atom 1:
  0.0714229  0.0714229  0.0714229  :  0.123708
Average Quantum RMS Displacement = 0.123708

Classical RMS Displacements in Angstroms
Atom 0:
  0.0679907  0.0679907  0.0679907  :  0.117763
Atom 1:
  0.0679907  0.0679907  0.0679907  :  0.117763
Average Classical RMS Displacement = 0.117763



Density of States and Frequency Dependence of Thermal Conductivity
Quantum						Classical
Anharm Freq (1/ps)	DOS (area = 1e12)	k-DOS (area = 1e12)		Anharm Freq (1/ps)	DOS (area = 1e12)	k-DOS (area = 1e12)
1.13626	0	0	0	0		1.13626	0	0	0	0
3.40879	0	0	0	0		3.40879	0	0	0	0
5.68132	0.000347685	0.0214623	0.021464	0.0214623		5.68132	0	0	0	0
7.95385	0.000521527	0.0280948	0.0280867	0.0280948		7.95385	0.000608448	0.0407634	0.0407664	0.0407634
10.2264	0.000608448	0.0172985	0.017294	0.0172985		10.2264	0.000260764	0.00713393	0.00712482	0.00713393
12.4989	0.00186881	0.0635218	0.0635228	0.0635218		12.4989	0.00195573	0.0694847	0.0694843	0.0694847
14.7714	0.000782291	0.00863698	0.00863764	0.00863698		14.7714	0.00104305	0.00718419	0.00718097	0.00718419
17.044	0.00321608	0.0181882	0.0181866	0.0181882		17.044	0.00295532	0.0202224	0.0202214	0.0202224
19.3165	0.00234687	0.0209868	0.0209852	0.0209868		19.3165	0.0028684	0.0197902	0.0197875	0.0197902
21.589	0.00712754	0.0366549	0.0366551	0.0366549		21.589	0.00347685	0.0224011	0.0224016	0.0224011
23.8615	0.00560642	0.021087	0.0210874	0.021087		23.8615	0.00538911	0.0216098	0.0216104	0.0216098
26.1341	0.00521527	0.0145531	0.0145538	0.0145531		26.1341	0.00647563	0.0156719	0.0156715	0.0156719
28.4066	0.0145158	0.0348411	0.0348416	0.0348411		28.4066	0.0107782	0.0336454	0.033646	0.0336454
30.6791	0.0148635	0.0169758	0.0169763	0.0169758		30.6791	0.0118213	0.0118813	0.0118818	0.0118813
32.9517	0.0166889	0.0166384	0.0166396	0.0166384		32.9517	0.0151243	0.0196055	0.0196066	0.0196055
35.2242	0.0147766	0.0120141	0.0120145	0.0120141		35.2242	0.0171235	0.015186	0.0151867	0.015186
37.4967	0.0134293	0.0183365	0.0183377	0.0183365		37.4967	0.0123863	0.0152498	0.0152506	0.0152498
39.7692	0.0153851	0.0121117	0.0121125	0.0121117		39.7692	0.018775	0.0189634	0.0189646	0.0189634
42.0418	0.0122559	0.0124538	0.0124549	0.0124538		42.0418	0.0125167	0.00958811	0.00958886	0.00958811
44.3143	0.0103436	0.0119526	0.0119535	0.0119526		44.3143	0.0127774	0.0129305	0.0129315	0.0129305
46.5868	0.0123863	0.0109498	0.0109507	0.0109498		46.5868	0.00930057	0.0118083	0.0118092	0.0118083
48.8594	0.00704062	0.00622498	0.00622534	0.00622498		48.8594	0.0103002	0.0079104	0.00791118	0.0079104
51.1319	0.0028684	0.00496521	0.00496563	0.00496521		51.1319	0.00521527	0.00540901	0.00540934	0.00540901
53.4044	0.00208611	0.00273062	0.00273083	0.00273062		53.4044	0.00156458	0.00287624	0.00287646	0.00287624
55.6769	0.00330301	0.00349779	0.00349805	0.00349779		55.6769	0.00382453	0.00634269	0.00634315	0.00634269
57.9495	0.0043026	0.00292946	0.0029297	0.00292946		57.9495	0.00260764	0.00189288	0.00189302	0.00189288
60.222	0.00338993	0.00154595	0.00154608	0.00154595		60.222	0.00378107	0.00319852	0.00319879	0.00319852
62.4945	0.00365069	0.0011285	0.00112859	0.0011285		62.4945	0.00495451	0.00208192	0.0020821	0.00208192
64.767	0.00643217	0.0013223	0.00132241	0.0013223		64.767	0.00591064	0.00191568	0.00191583	0.00191568
67.0396	0.00795329	0.0012414	0.0012415	0.0012414		67.0396	0.00469374	0.00079751	0.000797591	0.00079751
69.3121	0.0086052	0.000491659	0.000491721	0.000491658		69.3121	0.00821405	0.00139576	0.00139588	0.00139576
71.5846	0.0116474	0.000815145	0.000815193	0.000815145		71.5846	0.0130382	0.00078169	0.000781763	0.00078169
73.8572	0.00365069	0.000293954	0.000293993	0.000293954		73.8572	0.00538911	0.000770209	0.000770268	0.000770209
76.1297	0.00195573	0.000319301	0.000319333	0.000319301		76.1297	0.00338993	0.000523716	0.000523765	0.000523716
78.4022	0.00208611	0.000119877	0.000119886	0.000119877		78.4022	0.00169496	0.000308705	0.000308728	0.000308705
80.6747	0.00886596	0.000675057	0.000675127	0.000675057		80.6747	0.00521527	0.000392233	0.000392269	0.000392233
82.9473	0.00990902	0.00149	0.00149015	0.00149		82.9473	0.00834444	0.0016595	0.00165969	0.0016595
85.2198	0.00864866	0.00279108	0.00279143	0.00279108		85.2198	0.0121255	0.00449556	0.00449613	0.00449556
87.4923	0.00782291	0.00315437	0.00315461	0.00315437		87.4923	0.00643217	0.00485836	0.00485879	0.00485837
89.7649	0.00547604	0.00193271	0.00193286	0.00193271		89.7649	0.00808367	0.00578549	0.00578591	0.00578549
92.0374	0.00604102	0.00169493	0.00169504	0.00169493		92.0374	0.00538911	0.00353366	0.00353389	0.00353366
94.3099	0.00469374	0.00101417	0.00101422	0.00101417		94.3099	0.00482413	0.00250727	0.00250744	0.00250727
96.5824	0.00434606	0.000680097	0.000680141	0.000680097		96.5824	0.00365069	0.00151491	0.00151497	0.00151491
98.855	0.0165585	0.000529265	0.000529305	0.000529265		98.855	0.00864866	0.00156681	0.0015669	0.00156681
101.127	0.0447644	0.000726621	0.000726653	0.000726621		101.127	0.0305093	0.000955804	0.000955856	0.000955804
103.4	0.0491539	0.000529323	0.000529347	0.000529323		103.4	0.0482847	0.0018026	0.0018027	0.00180261
105.673	0.0315959	0.000298647	0.000298657	0.000298647		105.673	0.0429391	0.000982877	0.0009829	0.000982878
107.945	0.0140812	0.000110924	0.000110923	0.000110924		107.945	0.0218607	0.000476215	0.000476224	0.000476215
110.218	0.00675812	2.71682e-05	2.71634e-05	2.71682e-05		110.218	0.0110825	0.000172546	0.000172531	0.000172546
112.49	0	0	0	0		112.49	0.0023686	9.98122e-06	9.97905e-06	9.98121e-06
114.763	0	0	0	0		114.763	0	0	0	0
