Total Quantum Conductivity (W/m-K) = 	9.21605	9.88124	10.5464
Total Classical Conductivity (W/m-K) = 	25691.8	28325.7	30959.6

Quantum <(Delta/omega)^2>^1/2 = 	0.00684608
Quantum <(Gamma/omega)^2>^1/2 = 	0.00022203

Classical <(Delta/omega)^2>^1/2 = 	0.000176999
Classical <(Gamma/omega)^2>^1/2 = 	1.03605e-05

Quantum effective MFP (nm) = 	103631	105564	107313
Classical effective MFP (nm) = 	7799.72	8242.48	8649.96

Quantum RMS Displacements in Angstroms
Atom 0:
  0.048906  0.048906  0.048906  :  0.0847077
Atom 1:
  0.048906  0.048906  0.048906  :  0.0847077
Average Quantum RMS Displacement = 0.0847077

Classical RMS Displacements in Angstroms
Atom 0:
  0.0102267  0.0102267  0.0102267  :  0.0177132
Atom 1:
  0.0102267  0.0102267  0.0102267  :  0.0177132
Average Classical RMS Displacement = 0.0177132



Density of States and Frequency Dependence of Thermal Conductivity
Quantum						Classical
Anharm Freq (1/ps)	DOS (area = 1e12)	k-DOS (area = 1e12)		Anharm Freq (1/ps)	DOS (area = 1e12)	k-DOS (area = 1e12)
1.14356	0	0	0	0		1.14356	0	0	0	0
3.43068	0	0	0	0		3.43068	0	0	0	0
5.7178	0.000604566	0.427938	0.400607	0.376725		5.7178	0	0	0	0
8.00492	0.0010364	0.00834548	0.0357288	0.0596579		8.00492	0.00112277	0.0137914	0.0196603	0.0245306
10.292	0.00112277	0.000633967	0.000433235	0.000257823		10.292	0.0005182	0.00697313	0.00421649	0.00192889
12.5792	0.00367058	0.000310808	0.000458307	0.000587199		12.5792	0.00375695	0.0317666	0.0391939	0.0453574
14.8663	0.0015546	2.01678e-06	2.46444e-06	2.85562e-06		14.8663	0.0020728	0.00925696	0.00718164	0.00545943
17.1534	0.00630476	6.95545e-07	6.24923e-07	5.63211e-07		17.1534	0.00475016	0.0189022	0.0199873	0.0208878
19.4405	0.0046638	1.89713e-08	1.88667e-08	1.87753e-08		19.4405	0.00673659	0.0301245	0.0288106	0.0277203
21.7277	0.0151142	8.48739e-10	8.1151e-10	7.78978e-10		21.7277	0.00578656	0.0273258	0.0261953	0.0252572
24.0148	0.00997534	8.06961e-12	1.02252e-11	1.21088e-11		24.0148	0.0117027	0.0429673	0.0422414	0.041639
26.3019	0.010364	4.11903e-13	4.67549e-13	5.16176e-13		26.3019	0.0127823	0.0263078	0.0279018	0.0292246
28.589	0.0276373	3.91983e-14	3.60845e-14	3.33635e-14		28.589	0.0161506	0.0469315	0.0414683	0.0369347
30.8761	0.0186552	4.62446e-16	5.03822e-16	5.39979e-16		30.8761	0.0228871	0.0377176	0.0372935	0.0369417
33.1633	0.0179211	1.46013e-17	1.73315e-17	1.97173e-17		33.1633	0.0145096	0.0234766	0.0257884	0.0277068
35.4504	0.0121777	2.75242e-19	3.02895e-19	3.2706e-19		35.4504	0.0205121	0.0365391	0.0346326	0.0330505
37.7375	0.0150278	8.82551e-21	9.37007e-21	9.84594e-21		37.7375	0.0126959	0.0157603	0.0157771	0.0157912
40.0246	0.0108822	1.73266e-22	1.63473e-22	1.54916e-22		40.0246	0.0139914	0.0155665	0.0142842	0.0132201
42.3117	0.005182	1.36859e-24	1.86774e-24	2.30392e-24		42.3117	0.00984579	0.00592866	0.00637429	0.00674409
44.5989	0.00133868	4.785e-26	3.33321e-26	2.06455e-26		44.5989	0.0031092	0.00384616	0.00364256	0.00347361
46.886	0.0044047	2.57932e-27	2.42429e-27	2.28883e-27		46.886	0.00444788	0.00515646	0.004677	0.00427912
49.1731	0.0036274	2.53803e-29	2.25394e-29	2.00568e-29		49.1731	0.0023319	0.00231704	0.00231747	0.00231782
51.4602	0.00621839	8.88254e-31	1.04896e-30	1.1894e-30		51.4602	0.0046638	0.00312415	0.0030369	0.0029645
53.7473	0.0031092	5.74914e-33	7.6791e-33	9.3656e-33		53.7473	0.0041456	0.00291509	0.00293415	0.00294997
56.0345	0.00652068	1.05453e-33	9.76762e-34	9.088e-34		56.0345	0.00652068	0.00382896	0.00347292	0.00317746
58.3216	0.00958669	1.29278e-35	1.39557e-35	1.48539e-35		58.3216	0.005182	0.00193707	0.00175888	0.00161101
60.6087	0.005182	1.64324e-37	1.54057e-37	1.45085e-37		60.6087	0.00751389	0.00329188	0.00339138	0.00347395
62.8958	0.005182	1.46112e-38	1.42493e-38	1.3933e-38		62.8958	0.00621839	0.00236411	0.00216138	0.00199314
65.183	0.00444788	5.25087e-40	5.16086e-40	5.08219e-40		65.183	0.00755708	0.00218256	0.00234919	0.00248748
67.4701	0.0044047	5.94504e-42	6.13667e-42	6.30414e-42		67.4701	0.0020728	0.000403345	0.000374926	0.000351344
69.7572	0.0010364	3.13614e-44	2.81206e-44	2.52886e-44		69.7572	0.0023319	0.00052824	0.000703705	0.000849315
72.0443	0.00133868	4.60448e-46	7.59887e-46	1.02155e-45		72.0443	0.0010364	0.000129017	0.000112576	9.89318e-05
74.3314	0	0	0	0		74.3314	0.00133868	0.000161811	0.000274477	0.000367974
76.6186	0.0002591	2.64571e-57	8.121e-50	1.52176e-49		76.6186	0	0	0	0
78.9057	0	0	0	0		78.9057	0.0002591	1.39087e-12	4.15178e-05	7.59714e-05
81.1928	0	0	0	0		81.1928	0	0	0	0
83.4799	0	0	0	0		83.4799	0	0	0	0
85.767	0.000561383	2.07382e-55	4.47565e-55	6.57451e-55		85.767	0.000561383	3.00599e-05	5.60858e-05	7.76835e-05
88.0542	0.0041456	1.01494e-55	1.03466e-55	1.05189e-55		88.0542	0.0010364	0.000141339	0.000136337	0.000132186
90.3413	0.00652068	4.75467e-57	5.3584e-57	5.88597e-57		90.3413	0.00621839	0.000790374	0.00087462	0.000944532
92.6284	0.0137323	3.6872e-58	3.38189e-58	3.11509e-58		92.6284	0.0109254	0.00200603	0.00179073	0.00161206
94.9155	0.00725479	7.35159e-60	6.27674e-60	5.33748e-60		94.9155	0.010364	0.00205955	0.00186104	0.0016963
97.2026	0.01248	2.20934e-61	2.03529e-61	1.88319e-61		97.2026	0.00621839	0.00108929	0.00103655	0.000992782
99.4898	0.0114004	3.72071e-63	3.48946e-63	3.28739e-63		99.4898	0.0129982	0.00221533	0.00195685	0.00174234
101.777	0.0236213	1.43136e-64	1.47634e-64	1.51565e-64		101.777	0.0160642	0.00146844	0.00149505	0.00151713
104.064	0.0480198	3.9756e-66	4.6792e-66	5.29404e-66		104.064	0.028026	0.00176041	0.00174386	0.00173012
106.351	0.0541087	2.27705e-67	2.09609e-67	1.93795e-67		106.351	0.0608021	0.00218728	0.00207877	0.00198872
108.638	0.0287169	2.59853e-69	2.61534e-69	2.63003e-69		108.638	0.0411537	0.00142527	0.00142328	0.00142162
110.925	0.00805368	1.52806e-71	1.38384e-71	1.25781e-71		110.925	0.0198211	0.000497546	0.000479298	0.000464155
113.212	0	0	0	0		113.212	0.00442629	3.82717e-05	4.21614e-05	4.53892e-05
115.5	0	0	0	0		115.5	0	0	0	0
