Total Quantum Conductivity (W/m-K) = 	579.353	579.311	579.353
Total Classical Conductivity (W/m-K) = 	490.074	490.038	490.074

Quantum <(Delta/omega)^2>^1/2 = 	0.0105452
Quantum <(Gamma/omega)^2>^1/2 = 	0.00057024

Classical <(Delta/omega)^2>^1/2 = 	0.00850087
Classical <(Gamma/omega)^2>^1/2 = 	0.000590992

Quantum effective MFP (nm) = 	250.468	250.454	250.468
Classical effective MFP (nm) = 	169.519	169.509	169.519

Quantum RMS Displacements in Angstroms
Atom 0:
  0.0714237  0.0714237  0.0714237  :  0.12371
Atom 1:
  0.0714237  0.0714237  0.0714237  :  0.12371
Average Quantum RMS Displacement = 0.12371

Classical RMS Displacements in Angstroms
Atom 0:
  0.0679914  0.0679914  0.0679914  :  0.117764
Atom 1:
  0.0679914  0.0679914  0.0679914  :  0.117764
Average Classical RMS Displacement = 0.117764



Density of States and Frequency Dependence of Thermal Conductivity
Quantum						Classical
Anharm Freq (1/ps)	DOS (area = 1e12)	k-DOS (area = 1e12)		Anharm Freq (1/ps)	DOS (area = 1e12)	k-DOS (area = 1e12)
1.13626	0	0	0	0		1.13626	0	0	0	0
3.40878	0	0	0	0		3.40878	0	0	0	0
5.68129	0.000347686	0.020143	0.0201445	0.020143		5.68129	0	0	0	0
7.95381	0.00052153	0.0269783	0.0269726	0.0269783		7.95381	0.000608451	0.0397829	0.0397858	0.0397829
10.2263	0.000608451	0.0174601	0.0174555	0.0174601		10.2263	0.000260765	0.00711154	0.00710245	0.00711154
12.4988	0.00186881	0.0646097	0.0646105	0.0646097		12.4988	0.00195574	0.0694181	0.0694178	0.0694181
14.7714	0.000782294	0.00784976	0.00785033	0.00784976		14.7714	0.00104306	0.00695072	0.00694767	0.00695072
17.0439	0.0032161	0.0197062	0.019704	0.0197062		17.0439	0.00295533	0.020272	0.0202709	0.020272
19.3164	0.00234688	0.0206789	0.0206773	0.0206789		19.3164	0.00286841	0.0201148	0.0201121	0.0201148
21.5889	0.00712757	0.0365566	0.0365567	0.0365566		21.5889	0.00347686	0.022518	0.0225183	0.022518
23.8614	0.00560644	0.0198382	0.0198386	0.0198382		23.8614	0.00538914	0.021988	0.0219886	0.021988
26.134	0.0052153	0.0146331	0.0146336	0.0146331		26.134	0.00647566	0.0158301	0.0158297	0.0158301
28.4065	0.0145159	0.0355807	0.035581	0.0355807		28.4065	0.0107783	0.0332936	0.0332942	0.0332936
30.679	0.0148636	0.0171495	0.01715	0.0171495		30.679	0.0118213	0.0117571	0.0117575	0.0117571
32.9515	0.0166889	0.01768	0.0176811	0.01768		32.9515	0.0151244	0.0196129	0.019614	0.0196129
35.224	0.0147767	0.0117279	0.0117283	0.0117279		35.224	0.0171236	0.0150925	0.0150932	0.0150925
37.4965	0.0134294	0.017657	0.017658	0.017657		37.4965	0.0123863	0.0150997	0.0151005	0.0150997
39.7691	0.0153851	0.0120127	0.0120136	0.0120127		39.7691	0.0187751	0.0190569	0.0190581	0.0190569
42.0416	0.0122559	0.0126487	0.0126497	0.0126487		42.0416	0.0125167	0.00959093	0.00959167	0.00959093
44.3141	0.0103437	0.012004	0.0120048	0.012004		44.3141	0.0127775	0.013272	0.013273	0.013272
46.5866	0.0123863	0.010805	0.0108059	0.010805		46.5866	0.00930061	0.0125999	0.0126009	0.0125999
48.8591	0.00704065	0.00683255	0.00683292	0.00683255		48.8591	0.0103002	0.00794023	0.00794102	0.00794023
51.1316	0.00286841	0.00503118	0.00503158	0.00503118		51.1316	0.0052153	0.005422	0.00542233	0.005422
53.4042	0.00208612	0.00293722	0.00293743	0.00293722		53.4042	0.00156459	0.00290035	0.00290056	0.00290035
55.6767	0.00330302	0.00349649	0.00349674	0.00349649		55.6767	0.00382455	0.00629845	0.00629891	0.00629845
57.9492	0.00430262	0.0030449	0.00304514	0.0030449		57.9492	0.00260765	0.00190798	0.00190812	0.00190798
60.2217	0.00338994	0.00155156	0.00155169	0.00155156		60.2217	0.00378109	0.00318532	0.00318558	0.00318532
62.4942	0.00365071	0.00112934	0.00112943	0.00112934		62.4942	0.00495453	0.00208777	0.00208794	0.00208777
64.7668	0.0064322	0.00131425	0.00131435	0.00131426		64.7668	0.00591067	0.00191154	0.00191169	0.00191154
67.0393	0.00795333	0.00124574	0.00124585	0.00124574		67.0393	0.00469377	0.000791817	0.000791897	0.000791817
69.3118	0.00860524	0.000489002	0.000489062	0.000489001		69.3118	0.00821409	0.00139429	0.00139441	0.00139429
71.5843	0.0116475	0.000809241	0.000809286	0.000809241		71.5843	0.0130382	0.00077201	0.000772081	0.00077201
73.8568	0.00365071	0.000290353	0.000290391	0.000290353		73.8568	0.00538914	0.000765686	0.000765745	0.000765686
76.1293	0.00195574	0.000314794	0.000314824	0.000314794		76.1293	0.00338994	0.00051909	0.000519138	0.00051909
78.4019	0.00208612	0.000121817	0.000121826	0.000121817		78.4019	0.00169497	0.000306127	0.000306149	0.000306127
80.6744	0.008866	0.000666862	0.000666927	0.000666862		80.6744	0.0052153	0.000391156	0.000391192	0.000391156
82.9469	0.00990906	0.00147634	0.00147647	0.00147634		82.9469	0.00834447	0.00162697	0.00162717	0.00162697
85.2194	0.0086487	0.00278474	0.00278507	0.00278474		85.2194	0.0121256	0.00457586	0.00457646	0.00457586
87.4919	0.00782294	0.00319852	0.00319875	0.00319852		87.4919	0.0064322	0.00468026	0.00468067	0.00468026
89.7644	0.00547606	0.00195563	0.00195577	0.00195563		89.7644	0.00808371	0.00576582	0.00576624	0.00576582
92.037	0.00604105	0.00168072	0.00168082	0.00168072		92.037	0.00538914	0.00349507	0.00349529	0.00349507
94.3095	0.00469377	0.00104275	0.00104279	0.00104275		94.3095	0.00482415	0.00251799	0.00251816	0.00251799
96.582	0.00434608	0.000687983	0.000688024	0.000687983		96.582	0.00365071	0.00150888	0.00150895	0.00150888
98.8545	0.0165586	0.000529397	0.000529434	0.000529397		98.8545	0.0086487	0.0015491	0.00154919	0.0015491
101.127	0.0447646	0.000724709	0.000724738	0.000724709		101.127	0.0305095	0.000947114	0.000947166	0.000947114
103.4	0.0491542	0.000530097	0.000530119	0.000530097		103.4	0.0482849	0.00178808	0.00178818	0.00178808
105.672	0.031596	0.000297795	0.000297803	0.000297795		105.672	0.0429393	0.000976571	0.000976593	0.000976571
107.945	0.0140813	0.000109917	0.000109915	0.000109917		107.945	0.0218608	0.00047215	0.000472159	0.00047215
110.217	0.00675815	2.74075e-05	2.74025e-05	2.74075e-05		110.217	0.0110825	0.000171231	0.000171216	0.000171231
112.49	0	0	0	0		112.49	0.00236861	9.99854e-06	9.99635e-06	9.99853e-06
114.762	0	0	0	0		114.762	0	0	0	0
