Total Quantum Conductivity (W/m-K) = 	263.487	279.799	296.111
Total Classical Conductivity (W/m-K) = 	169451	190418	211384

Quantum <(Delta/omega)^2>^1/2 = 	0.00705541
Quantum <(Gamma/omega)^2>^1/2 = 	0.000201429

Classical <(Delta/omega)^2>^1/2 = 	0.000180406
Classical <(Gamma/omega)^2>^1/2 = 	9.81617e-06

Quantum effective MFP (nm) = 	2.95821e+06	2.98452e+06	3.00833e+06
Classical effective MFP (nm) = 	51443.5	55409.9	59060.2

Quantum RMS Displacements in Angstroms
Atom 0:
  0.0489118  0.0489118  0.0489118  :  0.0847178
Atom 1:
  0.0489118  0.0489118  0.0489118  :  0.0847178
Average Quantum RMS Displacement = 0.0847178

Classical RMS Displacements in Angstroms
Atom 0:
  0.0102268  0.0102268  0.0102268  :  0.0177133
Atom 1:
  0.0102268  0.0102268  0.0102268  :  0.0177133
Average Classical RMS Displacement = 0.0177133



Density of States and Frequency Dependence of Thermal Conductivity
Quantum						Classical
Anharm Freq (1/ps)	DOS (area = 1e12)	k-DOS (area = 1e12)		Anharm Freq (1/ps)	DOS (area = 1e12)	k-DOS (area = 1e12)
1.14355	0	0	0	0		1.14355	0	0	0	0
3.43066	0	0	0	0		3.43066	0	0	0	0
5.71777	0.00060457	0.426669	0.401843	0.379752		5.71777	0	0	0	0
8.00488	0.00103641	0.00962716	0.0344878	0.0566095		8.00488	0.00112277	0.00190078	0.0138274	0.023388
10.292	0.00215918	0.00074936	0.0006641	0.000588233		10.292	0.000518203	0.00722457	0.00428605	0.00193046
12.5791	0.0026342	0.000184497	0.000234769	0.000279501		12.5791	0.00375697	0.0358805	0.0367664	0.0374765
14.8662	0.00155461	2.24043e-06	2.71921e-06	3.14524e-06		14.8662	0.00207281	0.00523866	0.00444503	0.00380883
17.1533	0.0063048	7.77309e-07	7.11184e-07	6.52344e-07		17.1533	0.00475019	0.0232963	0.0206624	0.0185509
19.4404	0.00466382	2.6784e-08	2.52746e-08	2.39314e-08		19.4404	0.00673664	0.0248927	0.0312308	0.0363116
21.7275	0.0151142	1.10987e-09	1.07809e-09	1.04981e-09		21.7275	0.0057866	0.0461891	0.0394677	0.0340796
24.0146	0.0099754	1.35533e-11	1.63191e-11	1.87802e-11		24.0146	0.0117027	0.0664846	0.0657383	0.0651401
26.3017	0.0103641	5.89319e-13	6.68136e-13	7.3827e-13		26.3017	0.0127823	0.0527984	0.0452134	0.0391332
28.5888	0.0276375	6.99752e-14	6.35442e-14	5.78218e-14		28.5888	0.0161507	0.0492079	0.0462737	0.0439216
30.8759	0.0186553	8.9031e-16	9.60643e-16	1.02323e-15		30.8759	0.0228873	0.0312681	0.0351644	0.0382877
33.1631	0.0179212	3.12865e-17	3.76118e-17	4.32402e-17		33.1631	0.0145097	0.0127152	0.0174733	0.0212875
35.4502	0.0121778	8.75097e-19	8.99068e-19	9.20397e-19		35.4502	0.0205122	0.025133	0.0262807	0.0272007
37.7373	0.0150279	1.63202e-20	1.81417e-20	1.97626e-20		37.7373	0.012696	0.0042715	0.00456755	0.00480488
40.0244	0.0108823	6.00026e-22	5.68186e-22	5.39853e-22		40.0244	0.0139915	0.00683973	0.00586013	0.00507487
42.3115	0.00518203	2.99253e-24	5.24896e-24	7.25679e-24		42.3115	0.00984585	0.00316654	0.00300857	0.00288194
44.5986	0.00133869	5.36338e-26	3.93449e-26	2.66303e-26		44.5986	0.00310922	0.00278508	0.00236335	0.00202528
46.8857	0.00440472	6.36983e-28	6.38378e-28	6.3962e-28		46.8857	0.00444791	0.00154889	0.00137835	0.00124163
49.1728	0.00362742	1.57563e-29	1.39012e-29	1.22505e-29		49.1728	0.00233191	0.000739956	0.000682117	0.000635753
51.4599	0.00621843	2.16438e-31	2.66169e-31	3.10421e-31		51.4599	0.00466382	0.00459206	0.00363899	0.00287498
53.747	0.00310922	6.64226e-34	6.73737e-34	6.822e-34		53.747	0.00414562	0.00177137	0.00149972	0.00128196
56.0341	0.00652072	1.02975e-34	9.65141e-35	9.07649e-35		56.0341	0.00652072	0.00190558	0.00169575	0.00152755
58.3212	0.00958675	8.08804e-37	8.43598e-37	8.74558e-37		58.3212	0.00518203	0.00140404	0.00109931	0.00085503
60.6083	0.00518203	6.73527e-39	6.43206e-39	6.16225e-39		60.6083	0.00751394	0.00154273	0.00146153	0.00139643
62.8955	0.00518203	6.36241e-40	6.4622e-40	6.551e-40		62.8955	0.00621843	0.00104856	0.000954047	0.000878288
65.1826	0.00444791	3.13969e-41	3.05517e-41	2.97997e-41		65.1826	0.00755712	0.000639662	0.000617098	0.000599011
67.4697	0.00440472	2.54194e-43	2.73956e-43	2.9154e-43		67.4697	0.00207281	0.000122222	0.000110406	0.000100934
69.7568	0.00103641	1.76696e-45	1.59871e-45	1.44901e-45		69.7568	0.00233191	0.000183629	0.000182038	0.000180762
72.0439	0.00133869	3.69815e-47	6.4609e-47	8.91926e-47		72.0439	0.00103641	1.47821e-05	1.26511e-05	1.09429e-05
74.331	0	0	0	0		74.331	0.00133869	6.04354e-05	7.26109e-05	8.23711e-05
76.6181	0.000259101	2.61255e-58	8.09676e-51	1.53015e-50		76.6181	0	0	0	0
78.9052	0	0	0	0		78.9052	0.000259101	5.97882e-13	1.751e-05	3.15464e-05
81.1923	0	0	0	0		81.1923	0	0	0	0
83.4794	0	0	0	0		83.4794	0	0	0	0
85.7665	0.000561386	7.43648e-57	4.54536e-56	7.92823e-56		85.7665	0.000561386	0.000148775	0.000200101	0.000241244
88.0536	0.00414562	3.6183e-57	3.68723e-57	3.74856e-57		88.0536	0.00103641	0.000158417	0.000156067	0.000154184
90.3407	0.00652072	1.56005e-58	1.75083e-58	1.92059e-58		90.3407	0.00621843	0.00109508	0.00115111	0.00119603
92.6278	0.0137324	2.26767e-59	2.10139e-59	1.95344e-59		92.6278	0.0109254	0.000966578	0.000808917	0.000682532
94.915	0.00725484	4.82627e-61	3.95984e-61	3.18886e-61		94.915	0.0103641	0.00348895	0.00288116	0.00239394
97.2021	0.01248	1.03633e-62	9.68818e-63	9.08745e-63		97.2021	0.00621843	0.000439847	0.000429657	0.000421488
99.4892	0.0114005	1.70059e-64	1.71739e-64	1.73234e-64		99.4892	0.0129983	0.00244178	0.00204177	0.00172112
101.776	0.0236214	9.69599e-66	9.88456e-66	1.00523e-65		101.776	0.0160643	0.00121984	0.00114169	0.00107904
104.063	0.0480201	2.6174e-67	3.01631e-67	3.37127e-67		104.063	0.0280261	0.00282429	0.00300579	0.00315129
106.35	0.054109	2.04257e-68	1.85197e-68	1.68238e-68		106.35	0.0608025	0.00348062	0.00334093	0.00322895
108.638	0.0287171	1.75273e-70	1.85734e-70	1.95043e-70		108.638	0.0411539	0.00370529	0.00381252	0.00389848
110.925	0.00805373	1.59281e-72	1.6802e-72	1.75796e-72		110.925	0.0198213	0.00201915	0.00181572	0.00165264
113.212	0	0	0	0		113.212	0.00442631	0.000378338	0.000396818	0.000411632
115.499	0	0	0	0		115.499	0	0	0	0
