Total Quantum Conductivity (W/m-K) = 	307.207	326.178	345.148
Total Classical Conductivity (W/m-K) = 	257314	291043	324771

Quantum <(Delta/omega)^2>^1/2 = 	0.00705554
Quantum <(Gamma/omega)^2>^1/2 = 	0.000210779

Classical <(Delta/omega)^2>^1/2 = 	0.000180483
Classical <(Gamma/omega)^2>^1/2 = 	1.57503e-05

Quantum effective MFP (nm) = 	3.44907e+06	3.47923e+06	3.50652e+06
Classical effective MFP (nm) = 	78117.9	84690.9	90740

Quantum RMS Displacements in Angstroms
Atom 0:
  0.0489118  0.0489118  0.0489118  :  0.0847177
Atom 1:
  0.0489118  0.0489118  0.0489118  :  0.0847177
Average Quantum RMS Displacement = 0.0847177

Classical RMS Displacements in Angstroms
Atom 0:
  0.0102268  0.0102268  0.0102268  :  0.0177133
Atom 1:
  0.0102268  0.0102268  0.0102268  :  0.0177133
Average Classical RMS Displacement = 0.0177133



Density of States and Frequency Dependence of Thermal Conductivity
Quantum						Classical
Anharm Freq (1/ps)	DOS (area = 1e12)	k-DOS (area = 1e12)		Anharm Freq (1/ps)	DOS (area = 1e12)	k-DOS (area = 1e12)
1.14355	0	0	0	0		1.14355	0	0	0	0
3.43066	0	0	0	0		3.43066	0	0	0	0
5.71777	0.00060457	0.426696	0.401732	0.379513		5.71777	0	0	0	0
8.00488	0.00103641	0.00960421	0.0346021	0.0568521		8.00488	0.00112277	0.00196349	0.0154241	0.0260889
10.292	0.00215918	0.000747027	0.000662041	0.000586398		10.292	0.000518203	0.00619058	0.00364878	0.00163492
12.5791	0.0026342	0.000183512	0.00023356	0.000278107		12.5791	0.00375697	0.0375572	0.0393271	0.0407294
14.8662	0.00155461	2.23371e-06	2.71356e-06	3.14066e-06		14.8662	0.00207281	0.00533776	0.00461042	0.00403415
17.1533	0.0063048	7.87359e-07	7.20545e-07	6.61076e-07		17.1533	0.00475019	0.0237578	0.0210297	0.0188681
19.4404	0.00466382	2.6593e-08	2.51108e-08	2.37916e-08		19.4404	0.00673664	0.0245225	0.0301375	0.0345862
21.7275	0.0151142	1.10691e-09	1.07461e-09	1.04586e-09		21.7275	0.0057866	0.0503647	0.0430378	0.0372327
24.0146	0.0099754	1.34407e-11	1.61807e-11	1.86195e-11		24.0146	0.0117027	0.0703856	0.0679745	0.0660643
26.3017	0.0103641	5.82163e-13	6.60208e-13	7.29675e-13		26.3017	0.0127823	0.0497375	0.0428171	0.037334
28.5888	0.0276375	6.96829e-14	6.31521e-14	5.73392e-14		28.5888	0.0161507	0.0517116	0.0484915	0.0459402
30.8759	0.0186553	8.80355e-16	9.49768e-16	1.01155e-15		30.8759	0.0228873	0.0303787	0.0343968	0.0375804
33.1631	0.0179212	3.12408e-17	3.76534e-17	4.33611e-17		33.1631	0.0145097	0.0108462	0.0151286	0.0185214
35.4502	0.0121778	8.8827e-19	9.11396e-19	9.31981e-19		35.4502	0.0205122	0.0237139	0.0250354	0.0260823
37.7373	0.0150279	2.09648e-20	2.24471e-20	2.37665e-20		37.7373	0.012696	0.00323176	0.00354561	0.00379428
40.0244	0.0108823	7.16742e-22	6.78364e-22	6.44205e-22		40.0244	0.0139915	0.00543328	0.00458902	0.00392012
42.3115	0.00518203	6.0505e-24	8.36572e-24	1.04264e-23		42.3115	0.00984585	0.00281933	0.00261718	0.00245701
44.5986	0.00133869	1.29982e-25	9.34276e-26	6.08914e-26		44.5986	0.00310922	0.00288137	0.00235327	0.00193486
46.8857	0.00440472	1.96938e-27	1.94172e-27	1.9171e-27		46.8857	0.00444791	0.00095748	0.000846525	0.000758616
49.1728	0.00362742	3.79152e-29	3.35122e-29	2.95932e-29		49.1728	0.00233191	0.000396106	0.000363978	0.000338522
51.4599	0.00621843	5.89361e-31	7.13594e-31	8.24171e-31		51.4599	0.00466382	0.00384864	0.00297536	0.00228348
53.747	0.00310922	1.96613e-33	1.8934e-33	1.82866e-33		53.747	0.00414562	0.00190343	0.00156315	0.00129355
56.0341	0.00652072	3.04307e-34	2.86053e-34	2.69805e-34		56.0341	0.00652072	0.00174131	0.00153952	0.00137963
58.3212	0.00958675	1.00485e-36	1.03368e-36	1.05934e-36		58.3212	0.00518203	0.00157348	0.00117897	0.000866408
60.6083	0.00518203	7.02993e-39	6.73872e-39	6.47953e-39		60.6083	0.00751394	0.00134618	0.00126409	0.00119906
62.8955	0.00518203	6.51294e-40	6.76999e-40	6.99877e-40		62.8955	0.00621843	0.000825245	0.000749865	0.000690142
65.1826	0.00444791	3.31582e-41	3.21227e-41	3.1201e-41		65.1826	0.00755712	0.000462886	0.000441153	0.000423934
67.4697	0.00440472	2.25209e-43	2.52997e-43	2.7773e-43		67.4697	0.00207281	9.48422e-05	8.48375e-05	7.69109e-05
69.7568	0.00103641	1.63373e-45	1.47616e-45	1.33591e-45		69.7568	0.00233191	0.000135302	0.00012644	0.000119418
72.0439	0.00133869	4.64373e-47	6.69152e-47	8.5142e-47		72.0439	0.00103641	8.42112e-06	7.16576e-06	6.17115e-06
74.331	0	0	0	0		74.331	0.00133869	6.41409e-05	6.47987e-05	6.53199e-05
76.6181	0.000259101	3.13653e-58	9.72212e-51	1.83755e-50		76.6181	0	0	0	0
78.9052	0	0	0	0		78.9052	0.000259101	6.5094e-13	1.89401e-05	3.39462e-05
81.1923	0	0	0	0		81.1923	0	0	0	0
83.4794	0	0	0	0		83.4794	0	0	0	0
85.7665	0.000561386	6.75095e-57	4.09634e-56	7.1415e-56		85.7665	0.000561386	0.000187998	0.00028729	0.000365959
88.0536	0.00414562	3.07993e-57	3.11892e-57	3.15361e-57		88.0536	0.00103641	0.000186653	0.00018302	0.000180142
90.3407	0.00652072	1.38991e-58	1.54949e-58	1.69153e-58		90.3407	0.00621843	0.00114104	0.00121714	0.00127743
92.6278	0.0137324	2.08315e-59	1.92979e-59	1.7933e-59		92.6278	0.0109254	0.000830853	0.000690463	0.000579232
94.915	0.00725484	4.02169e-61	3.2994e-61	2.6565e-61		94.915	0.0103641	0.0035815	0.00298738	0.00251667
97.2021	0.01248	9.0229e-63	8.45028e-63	7.9406e-63		97.2021	0.00621843	0.000336463	0.000336449	0.000336439
99.4892	0.0114005	1.52405e-64	1.56992e-64	1.61074e-64		99.4892	0.0129983	0.00230456	0.00186979	0.00152533
101.776	0.0236214	9.16736e-66	9.39517e-66	9.59793e-66		101.776	0.0160643	0.00113834	0.0010715	0.00101854
104.063	0.0480201	2.35735e-67	2.7279e-67	3.05771e-67		104.063	0.0280261	0.00295229	0.00311072	0.00323623
106.35	0.054109	1.99382e-68	1.79789e-68	1.6235e-68		106.35	0.0608025	0.00368416	0.00354028	0.00342629
108.638	0.0287171	1.63993e-70	1.73968e-70	1.82847e-70		108.638	0.0411539	0.00397456	0.00406213	0.00413151
110.925	0.00805373	1.65077e-72	1.78116e-72	1.89723e-72		110.925	0.0198213	0.002294	0.00205693	0.00186909
113.212	0	0	0	0		113.212	0.00442631	0.000430384	0.000431392	0.00043219
115.499	0	0	0	0		115.499	0	0	0	0
