Total Quantum Conductivity (W/m-K) = 	582.694	582.652	582.694
Total Classical Conductivity (W/m-K) = 	490.949	490.913	490.949

Quantum <(Delta/omega)^2>^1/2 = 	0.010546
Quantum <(Gamma/omega)^2>^1/2 = 	0.000570404

Classical <(Delta/omega)^2>^1/2 = 	0.00850144
Classical <(Gamma/omega)^2>^1/2 = 	0.000591146

Quantum effective MFP (nm) = 	251.913	251.898	251.913
Classical effective MFP (nm) = 	169.822	169.811	169.822

Quantum RMS Displacements in Angstroms
Atom 0:
  0.0714238  0.0714238  0.0714238  :  0.12371
Atom 1:
  0.0714238  0.0714238  0.0714238  :  0.12371
Average Quantum RMS Displacement = 0.12371

Classical RMS Displacements in Angstroms
Atom 0:
  0.0679914  0.0679914  0.0679914  :  0.117765
Atom 1:
  0.0679914  0.0679914  0.0679914  :  0.117765
Average Classical RMS Displacement = 0.117765



Density of States and Frequency Dependence of Thermal Conductivity
Quantum						Classical
Anharm Freq (1/ps)	DOS (area = 1e12)	k-DOS (area = 1e12)		Anharm Freq (1/ps)	DOS (area = 1e12)	k-DOS (area = 1e12)
1.13626	0	0	0	0		1.13626	0	0	0	0
3.40878	0	0	0	0		3.40878	0	0	0	0
5.6813	0.000347686	0.020339	0.0203404	0.020339		5.6813	0	0	0	0
7.95382	0.000521529	0.0271051	0.0270993	0.0271051		7.95382	0.00060845	0.0397213	0.0397242	0.0397213
10.2263	0.00060845	0.0175117	0.0175071	0.0175117		10.2263	0.000260764	0.00712158	0.00711249	0.00712158
12.4989	0.00186881	0.0642811	0.0642819	0.0642811		12.4989	0.00195573	0.0694204	0.0694201	0.0694204
14.7714	0.000782293	0.00789813	0.0078987	0.00789813		14.7714	0.00104306	0.00694408	0.00694101	0.00694408
17.0439	0.0032161	0.0196635	0.0196612	0.0196635		17.0439	0.00295533	0.0202991	0.020298	0.0202991
19.3164	0.00234688	0.0206359	0.0206343	0.0206359		19.3164	0.00286841	0.0201213	0.0201186	0.0201213
21.5889	0.00712756	0.0365459	0.036546	0.0365459		21.5889	0.00347686	0.0225807	0.022581	0.0225807
23.8615	0.00560644	0.0200651	0.0200655	0.0200651		23.8615	0.00538913	0.0220261	0.0220267	0.0220261
26.134	0.00521529	0.0146333	0.0146339	0.0146333		26.134	0.00647565	0.0158219	0.0158215	0.0158219
28.4065	0.0145159	0.0355218	0.0355222	0.0355218		28.4065	0.0107783	0.0332998	0.0333004	0.0332998
30.679	0.0148636	0.0171334	0.0171339	0.0171334		30.679	0.0118213	0.0117469	0.0117473	0.0117469
32.9515	0.0166889	0.0175557	0.0175568	0.0175557		32.9515	0.0151243	0.0195492	0.0195503	0.0195492
35.2241	0.0147767	0.0116616	0.011662	0.0116616		35.2241	0.0171235	0.0150834	0.0150841	0.0150834
37.4966	0.0134294	0.0176856	0.0176867	0.0176856		37.4966	0.0123863	0.0150725	0.0150733	0.0150725
39.7691	0.0153851	0.0119501	0.0119509	0.0119501		39.7691	0.018775	0.0190513	0.0190525	0.0190513
42.0416	0.0122559	0.0126398	0.0126408	0.0126398		42.0416	0.0125167	0.00955824	0.00955898	0.00955824
44.3141	0.0103437	0.0119673	0.0119681	0.0119673		44.3141	0.0127775	0.0132741	0.013275	0.013274
46.5867	0.0123863	0.0108724	0.0108733	0.0108724		46.5867	0.0093006	0.0126668	0.0126677	0.0126668
48.8592	0.00704064	0.00688403	0.00688441	0.00688403		48.8592	0.0103002	0.00797274	0.00797354	0.00797274
51.1317	0.00286841	0.00505874	0.00505915	0.00505874		51.1317	0.00521529	0.00541688	0.00541721	0.00541688
53.4042	0.00208612	0.00301046	0.00301068	0.00301046		53.4042	0.00156459	0.00290886	0.00290908	0.00290886
55.6767	0.00330302	0.00348144	0.00348169	0.00348144		55.6767	0.00382455	0.00628883	0.00628929	0.00628883
57.9493	0.00430261	0.00304265	0.00304289	0.00304265		57.9493	0.00260764	0.00190434	0.00190447	0.00190434
60.2218	0.00338994	0.00154648	0.0015466	0.00154648		60.2218	0.00378108	0.0031793	0.00317956	0.0031793
62.4943	0.0036507	0.0011247	0.00112479	0.0011247		62.4943	0.00495453	0.00208576	0.00208594	0.00208576
64.7668	0.00643219	0.00130584	0.00130594	0.00130584		64.7668	0.00591066	0.00190835	0.0019085	0.00190835
67.0394	0.00795332	0.00123937	0.00123948	0.00123937		67.0394	0.00469376	0.00078997	0.00079005	0.00078997
69.3119	0.00860523	0.000485895	0.000485955	0.000485895		69.3119	0.00821408	0.00139086	0.00139098	0.00139086
71.5844	0.0116475	0.000804603	0.000804647	0.000804603		71.5844	0.0130382	0.000770403	0.000770475	0.000770403
73.8569	0.0036507	0.000288516	0.000288553	0.000288516		73.8569	0.00538913	0.000764665	0.000764724	0.000764665
76.1294	0.00195573	0.0003123	0.00031233	0.0003123		76.1294	0.00338994	0.000518085	0.000518134	0.000518085
78.402	0.00208612	0.000121297	0.000121306	0.000121297		78.402	0.00169497	0.000305035	0.000305058	0.000305035
80.6745	0.00886599	0.000664142	0.000664207	0.000664142		80.6745	0.00521529	0.000391036	0.000391072	0.000391036
82.947	0.00990905	0.00146855	0.00146867	0.00146855		82.947	0.00834446	0.00162362	0.00162382	0.00162362
85.2195	0.00864869	0.00278181	0.00278215	0.00278181		85.2195	0.0121255	0.00457957	0.00458016	0.00457957
87.492	0.00782293	0.00319426	0.00319449	0.00319426		87.492	0.00643219	0.00468795	0.00468837	0.00468795
89.7646	0.00547605	0.00194524	0.00194537	0.00194524		89.7646	0.0080837	0.0057628	0.00576322	0.0057628
92.0371	0.00604104	0.00167927	0.00167937	0.00167927		92.0371	0.00538913	0.00349893	0.00349916	0.00349893
94.3096	0.00469376	0.00104165	0.0010417	0.00104165		94.3096	0.00482414	0.00252257	0.00252273	0.00252257
96.5821	0.00434607	0.000685224	0.000685266	0.000685224		96.5821	0.0036507	0.0015074	0.00150747	0.0015074
98.8546	0.0165585	0.0005266	0.000526637	0.0005266		98.8546	0.00864869	0.00154708	0.00154716	0.00154708
101.127	0.0447646	0.000720642	0.000720672	0.000720642		101.127	0.0305094	0.000945461	0.000945512	0.000945461
103.4	0.0486326	0.000527282	0.000527304	0.000527282		103.4	0.0482849	0.00178467	0.00178476	0.00178467
105.672	0.0321175	0.00029609	0.000296098	0.00029609		105.672	0.0429392	0.000974134	0.000974156	0.000974134
107.945	0.0140813	0.000109306	0.000109305	0.000109306		107.945	0.0218608	0.000471207	0.000471216	0.000471207
110.217	0.00675815	2.73286e-05	2.73237e-05	2.73286e-05		110.217	0.0110825	0.000171043	0.000171029	0.000171043
112.49	0	0	0	0		112.49	0.00236861	1.00041e-05	1.0002e-05	1.00041e-05
114.762	0	0	0	0		114.762	0	0	0	0
