Total Quantum Conductivity (W/m-K) = 	583.181	583.138	583.181
Total Classical Conductivity (W/m-K) = 	490.608	490.572	490.608

Quantum <(Delta/omega)^2>^1/2 = 	0.010546
Quantum <(Gamma/omega)^2>^1/2 = 	0.000570527

Classical <(Delta/omega)^2>^1/2 = 	0.00850139
Classical <(Gamma/omega)^2>^1/2 = 	0.000591278

Quantum effective MFP (nm) = 	252.124	252.108	252.124
Classical effective MFP (nm) = 	169.704	169.693	169.704

Quantum RMS Displacements in Angstroms
Atom 0:
  0.0714238  0.0714238  0.0714238  :  0.12371
Atom 1:
  0.0714238  0.0714238  0.0714238  :  0.12371
Average Quantum RMS Displacement = 0.12371

Classical RMS Displacements in Angstroms
Atom 0:
  0.0679914  0.0679914  0.0679914  :  0.117765
Atom 1:
  0.0679914  0.0679914  0.0679914  :  0.117765
Average Classical RMS Displacement = 0.117765



Density of States and Frequency Dependence of Thermal Conductivity
Quantum						Classical
Anharm Freq (1/ps)	DOS (area = 1e12)	k-DOS (area = 1e12)		Anharm Freq (1/ps)	DOS (area = 1e12)	k-DOS (area = 1e12)
1.13626	0	0	0	0		1.13626	0	0	0	0
3.40878	0	0	0	0		3.40878	0	0	0	0
5.6813	0.000347686	0.0203111	0.0203125	0.0203111		5.6813	0	0	0	0
7.95382	0.000521529	0.0273254	0.0273193	0.0273254		7.95382	0.00060845	0.0397654	0.0397683	0.0397654
10.2263	0.00060845	0.0174882	0.0174837	0.0174882		10.2263	0.000260764	0.00712456	0.00711546	0.00712456
12.4989	0.00186881	0.0641831	0.064184	0.0641831		12.4989	0.00195573	0.0694601	0.0694597	0.0694601
14.7714	0.000782293	0.00799467	0.00799526	0.00799468		14.7714	0.00104306	0.00695296	0.00694989	0.00695296
17.0439	0.0032161	0.0196578	0.0196556	0.0196578		17.0439	0.00295533	0.0202877	0.0202867	0.0202877
19.3164	0.00234688	0.0206039	0.0206023	0.0206039		19.3164	0.00286841	0.0201177	0.020115	0.0201177
21.5889	0.00712756	0.0365251	0.0365252	0.0365251		21.5889	0.00347686	0.0225763	0.0225767	0.0225763
23.8615	0.00560644	0.0202173	0.0202177	0.0202173		23.8615	0.00538913	0.0219538	0.0219544	0.0219538
26.134	0.00521529	0.0146088	0.0146093	0.0146088		26.134	0.00647565	0.015802	0.0158017	0.015802
28.4065	0.0145159	0.0354589	0.0354593	0.0354589		28.4065	0.0107783	0.0333221	0.0333227	0.0333221
30.679	0.0148636	0.0171002	0.0171007	0.0171002		30.679	0.0118213	0.0117532	0.0117536	0.0117532
32.9515	0.0166889	0.0174936	0.0174948	0.0174936		32.9515	0.0151243	0.0195529	0.019554	0.0195529
35.2241	0.0147767	0.0116611	0.0116615	0.0116611		35.2241	0.0171235	0.0150889	0.0150896	0.0150889
37.4966	0.0134294	0.0177634	0.0177645	0.0177634		37.4966	0.0123863	0.015081	0.0150819	0.015081
39.7691	0.0153851	0.0119385	0.0119393	0.0119385		39.7691	0.018775	0.0190569	0.0190581	0.0190569
42.0416	0.0122559	0.012616	0.012617	0.0126159		42.0416	0.0125167	0.00956397	0.00956472	0.00956397
44.3141	0.0103437	0.0119528	0.0119536	0.0119528		44.3141	0.0127775	0.0132636	0.0132646	0.0132636
46.5867	0.0123863	0.0108587	0.0108596	0.0108587		46.5867	0.0093006	0.0126481	0.0126491	0.0126481
48.8592	0.00704064	0.00685892	0.00685931	0.00685892		48.8592	0.0103002	0.00795001	0.00795081	0.00795001
51.1317	0.00286841	0.00504745	0.00504786	0.00504745		51.1317	0.00521529	0.00541605	0.00541638	0.00541605
53.4042	0.00208612	0.00299381	0.00299403	0.00299381		53.4042	0.00156459	0.00290884	0.00290905	0.00290884
55.6768	0.00330302	0.00347724	0.00347749	0.00347724		55.6768	0.00382455	0.00629001	0.00629047	0.00629001
57.9493	0.00430261	0.00303586	0.0030361	0.00303586		57.9493	0.00260764	0.00190459	0.00190473	0.00190459
60.2218	0.00338994	0.00154472	0.00154485	0.00154472		60.2218	0.00378108	0.00318068	0.00318095	0.00318068
62.4943	0.0036507	0.00112342	0.00112351	0.00112342		62.4943	0.00495452	0.0020866	0.00208678	0.0020866
64.7668	0.00643219	0.00130454	0.00130464	0.00130454		64.7668	0.00591066	0.00190926	0.0019094	0.00190926
67.0394	0.00795332	0.00123787	0.00123798	0.00123787		67.0394	0.00469376	0.000790367	0.000790447	0.000790367
69.3119	0.00860523	0.000485421	0.000485482	0.000485421		69.3119	0.00821408	0.00139145	0.00139157	0.00139145
71.5844	0.0116475	0.000803832	0.000803879	0.000803834		71.5844	0.0130382	0.000770884	0.000770955	0.000770884
73.8569	0.0036507	0.000288259	0.000288296	0.000288259		73.8569	0.00538913	0.000765059	0.000765118	0.000765059
76.1294	0.00195573	0.000312069	0.000312099	0.000312069		76.1294	0.00338994	0.000518373	0.000518421	0.000518373
78.402	0.00208612	0.000121121	0.00012113	0.000121121		78.402	0.00169497	0.000305236	0.000305258	0.000305236
80.6745	0.00886599	0.000663472	0.000663538	0.000663472		80.6745	0.00521529	0.000391236	0.000391272	0.000391236
82.947	0.00990905	0.00146645	0.00146658	0.00146645		82.947	0.00834446	0.00162469	0.00162488	0.00162469
85.2195	0.00864869	0.00277773	0.00277807	0.00277773		85.2195	0.0121255	0.00457902	0.00457962	0.00457902
87.492	0.00782293	0.00319076	0.00319099	0.00319075		87.492	0.00643219	0.00468612	0.00468653	0.00468612
89.7646	0.00547605	0.00194396	0.00194409	0.00194396		89.7646	0.0080837	0.00576465	0.00576507	0.00576465
92.0371	0.00604104	0.00167627	0.00167638	0.00167627		92.0371	0.00538913	0.00349788	0.00349811	0.00349788
94.3096	0.00469376	0.00103933	0.00103938	0.00103933		94.3096	0.00482414	0.00252327	0.00252344	0.00252327
96.5821	0.00434607	0.000684362	0.000684403	0.000684362		96.5821	0.0036507	0.00150803	0.0015081	0.00150803
98.8546	0.0165585	0.000526022	0.000526059	0.000526022		98.8546	0.00864869	0.00154767	0.00154775	0.00154767
101.127	0.0447646	0.000719859	0.000719889	0.000719859		101.127	0.0305094	0.000946045	0.000946097	0.000946045
103.4	0.0486326	0.000526643	0.000526665	0.000526643		103.4	0.0482849	0.00178549	0.00178558	0.00178549
105.672	0.0321175	0.000295763	0.000295772	0.000295763		105.672	0.0429392	0.000974659	0.000974682	0.000974659
107.945	0.0140813	0.000109205	0.000109203	0.000109205		107.945	0.0218608	0.000471488	0.000471497	0.000471488
110.217	0.00675815	2.72812e-05	2.72763e-05	2.72812e-05		110.217	0.0110825	0.000171116	0.000171102	0.000171116
112.49	0	0	0	0		112.49	0.00236861	1.00027e-05	1.00005e-05	1.00027e-05
114.762	0	0	0	0		114.762	0	0	0	0
