Total Quantum Conductivity (W/m-K) = 	518.846	518.81	518.846
Total Classical Conductivity (W/m-K) = 	448.289	448.259	448.289

Quantum <(Delta/omega)^2>^1/2 = 	0.0102261
Quantum <(Gamma/omega)^2>^1/2 = 	0.000545127

Classical <(Delta/omega)^2>^1/2 = 	0.00827659
Classical <(Gamma/omega)^2>^1/2 = 	0.000571179

Quantum effective MFP (nm) = 	224.193	224.18	224.193
Classical effective MFP (nm) = 	155.003	154.995	155.003

Quantum RMS Displacements in Angstroms
Atom 0:
  0.0713959  0.0713959  0.0713959  :  0.123661
Atom 1:
  0.0713959  0.0713959  0.0713959  :  0.123661
Average Quantum RMS Displacement = 0.123661

Classical RMS Displacements in Angstroms
Atom 0:
  0.0679713  0.0679713  0.0679713  :  0.11773
Atom 1:
  0.0679713  0.0679713  0.0679713  :  0.11773
Average Classical RMS Displacement = 0.11773



Density of States and Frequency Dependence of Thermal Conductivity
Quantum						Classical
Anharm Freq (1/ps)	DOS (area = 1e12)	k-DOS (area = 1e12)		Anharm Freq (1/ps)	DOS (area = 1e12)	k-DOS (area = 1e12)
1.13641	0	0	0	0		1.13641	0	0	0	0
3.40924	0	0	0	0		3.40924	0	0	0	0
5.68207	0.000347639	0.0214873	0.0214888	0.0214873		5.68207	0	0	0	0
7.95489	0.000521459	0.0216198	0.0216133	0.0216198		7.95489	0.000608368	0.0359917	0.0359941	0.0359917
10.2277	0.000608368	0.0138061	0.013804	0.0138061		10.2277	0.000260729	0.00572289	0.00571554	0.00572289
12.5005	0.00186856	0.055868	0.0558668	0.055868		12.5005	0.00195547	0.0581829	0.0581837	0.0581829
14.7734	0.000782188	0.00877052	0.00877113	0.00877052		14.7734	0.00104292	0.010299	0.0102949	0.010299
17.0462	0.00321566	0.0204113	0.020409	0.0204113		17.0462	0.00295493	0.0201485	0.0201476	0.0201485
19.319	0.00234656	0.0202046	0.0202031	0.0202046		19.319	0.00286802	0.0196664	0.0196639	0.0196664
21.5919	0.0071266	0.037077	0.0370772	0.037077		21.5919	0.00347639	0.0222675	0.0222677	0.0222675
23.8647	0.00508422	0.0204471	0.0204479	0.0204471		23.8647	0.00538841	0.0221982	0.0221987	0.0221982
26.1375	0.00573604	0.016629	0.016629	0.016629		26.1375	0.00647478	0.0172835	0.0172829	0.0172835
28.4103	0.0145139	0.031417	0.031417	0.031417		28.4103	0.0107768	0.0308527	0.0308527	0.0308527
30.6832	0.0148616	0.0190125	0.019013	0.0190125		30.6832	0.0118197	0.0125413	0.0125416	0.0125413
32.956	0.0161652	0.0215347	0.021536	0.0215347		32.956	0.0151223	0.0225434	0.0225446	0.0225434
35.2288	0.0142532	0.0133154	0.0133158	0.0133154		35.2288	0.0171212	0.015868	0.0158687	0.015868
37.5016	0.0144705	0.0200919	0.0200931	0.0200919		37.5016	0.0123846	0.0155867	0.0155874	0.0155867
39.7745	0.015383	0.0137226	0.0137234	0.0137226		39.7745	0.0182511	0.0192371	0.0192382	0.0192371
42.0473	0.0122543	0.0130608	0.0130619	0.0130608		42.0473	0.0130365	0.0113316	0.0113324	0.0113316
44.3201	0.0103423	0.0129438	0.0129447	0.0129438		44.3201	0.0127757	0.0148365	0.0148375	0.0148365
46.593	0.0123846	0.0115833	0.0115843	0.0115833		46.593	0.00929935	0.0130396	0.0130405	0.0130396
48.8658	0.00703969	0.0063278	0.00632811	0.0063278		48.8658	0.0102988	0.00892327	0.00892408	0.00892327
51.1386	0.00286802	0.00492067	0.00492105	0.00492067		51.1386	0.00521459	0.00599306	0.00599337	0.00599306
53.4114	0.00208583	0.00334682	0.00334706	0.00334682		53.4114	0.00156438	0.003471	0.00347123	0.003471
55.6843	0.00330257	0.00354046	0.0035407	0.00354046		55.6843	0.00382403	0.00629853	0.00629894	0.00629853
57.9571	0.00430203	0.00352354	0.00352381	0.00352354		57.9571	0.00260729	0.00214022	0.00214036	0.00214022
60.2299	0.00338948	0.00170358	0.00170372	0.00170358		60.2299	0.00378057	0.00362365	0.00362392	0.00362365
62.5027	0.00365021	0.00120437	0.00120446	0.00120437		62.5027	0.00495386	0.00219923	0.00219939	0.00219923
64.7756	0.00643132	0.00159919	0.0015993	0.00159919		64.7756	0.00590986	0.00226575	0.00226591	0.00226575
67.0484	0.00782188	0.00138576	0.00138588	0.00138576		67.0484	0.00469313	0.000915099	0.000915185	0.000915099
69.3212	0.00873443	0.000665957	0.000666035	0.000665957		69.3212	0.00821297	0.00163988	0.00164001	0.00163988
71.594	0.0116459	0.000935204	0.000935251	0.000935204		71.594	0.0130365	0.000880682	0.000880758	0.000880682
73.8669	0.00365021	0.000342061	0.000342104	0.000342061		73.8669	0.00538841	0.000855669	0.000855727	0.000855669
76.1397	0.00195547	0.000397801	0.000397838	0.000397801		76.1397	0.00338948	0.000608473	0.000608525	0.000608473
78.4125	0.00208583	0.000138238	0.000138248	0.000138238		78.4125	0.00169474	0.000359586	0.00035961	0.000359586
80.6854	0.0088648	0.000744067	0.00074414	0.000744067		80.6854	0.00521459	0.000408539	0.000408573	0.000408539
82.9582	0.00990771	0.00158206	0.00158221	0.00158206		82.9582	0.00834334	0.00167823	0.00167841	0.00167823
85.231	0.00864752	0.00276988	0.0027702	0.00276988		85.231	0.0121239	0.00459601	0.00459648	0.00459601
87.5038	0.00782188	0.00322229	0.00322252	0.00322229		87.5038	0.00643132	0.00485441	0.00485482	0.00485441
89.7767	0.00547532	0.00215199	0.00215213	0.00215199		89.7767	0.00808261	0.00576442	0.00576479	0.00576442
92.0495	0.00604023	0.00198023	0.00198036	0.00198023		92.0495	0.00538841	0.00400524	0.00400548	0.00400524
94.3223	0.00469313	0.00117351	0.00117356	0.00117351		94.3223	0.00482349	0.00258215	0.00258229	0.00258215
96.5951	0.00434549	0.00077141	0.000771451	0.00077141		96.5951	0.00365021	0.00170249	0.00170256	0.00170249
98.868	0.0165563	0.000623484	0.000623525	0.000623484		98.868	0.00864752	0.00175277	0.00175285	0.00175277
101.141	0.0447585	0.000839639	0.00083967	0.000839639		101.141	0.0305053	0.0010602	0.00106025	0.0010602
103.414	0.048626	0.000591524	0.000591546	0.000591524		103.414	0.0482784	0.00198764	0.00198773	0.00198764
105.686	0.0310702	0.000334469	0.000334476	0.000334469		105.686	0.0429334	0.00110173	0.00110175	0.00110173
107.959	0.0151223	0.000133143	0.000133141	0.000133143		107.959	0.0218578	0.000522059	0.000522062	0.000522059
110.232	0.00675723	2.86819e-05	2.86767e-05	2.86819e-05		110.232	0.011081	0.000182391	0.000182376	0.000182391
112.505	0	0	0	0		112.505	0.00236829	1.0643e-05	1.064e-05	1.0643e-05
114.778	0	0	0	0		114.778	0	0	0	0
