Total Quantum Conductivity (W/m-K) = 	161.363	169.961	178.559
Total Classical Conductivity (W/m-K) = 	145322	177104	208887

Quantum <(Delta/omega)^2>^1/2 = 	0.00704231
Quantum <(Gamma/omega)^2>^1/2 = 	0.00024212

Classical <(Delta/omega)^2>^1/2 = 	0.000180119
Classical <(Gamma/omega)^2>^1/2 = 	2.68522e-05

Quantum effective MFP (nm) = 	2.40444e+06	2.42489e+06	2.44367e+06
Classical effective MFP (nm) = 	44365.2	51882.9	58816.6

Quantum RMS Displacements in Angstroms
Atom 0:
  0.048843  0.0488364  0.0488514  :  0.0845996
Atom 1:
  0.0488293  0.0488358  0.0488208  :  0.0845737
Average Quantum RMS Displacement = 0.0845866

Classical RMS Displacements in Angstroms
Atom 0:
  0.0101741  0.0101728  0.0101772  :  0.0176231
Atom 1:
  0.0101727  0.010174  0.0101696  :  0.0176186
Average Classical RMS Displacement = 0.0176209



Density of States and Frequency Dependence of Thermal Conductivity
Quantum						Classical
Anharm Freq (1/ps)	DOS (area = 1e12)	k-DOS (area = 1e12)		Anharm Freq (1/ps)	DOS (area = 1e12)	k-DOS (area = 1e12)
1.14355	0	0	0	0		1.14355	0	0	0	0
3.43066	0	0	0	0		3.43066	0	0	0	0
5.71777	0.000743594	0.429764	0.408339	0.388978		5.71777	0	0	0	0
8.00488	0.000637366	1.6039e-08	0.023999	0.0456867		8.00488	0.000743594	0.0245011	0.0200869	0.017016
10.292	0.000637366	0.00694899	0.0043983	0.00209326		10.292	0.00127473	0.0014263	0.000884116	0.00050692
12.5791	0.0046209	0.000510821	0.000489438	0.000470113		12.5791	0.00302749	0.0156564	0.0141788	0.0131508
14.8662	0.00318683	9.33867e-06	6.96921e-06	4.82795e-06		14.8662	0.00286815	0.0287316	0.0293114	0.0297148
17.1533	0.00647989	2.1449e-07	1.99402e-07	1.85767e-07		17.1533	0.0019121	0.00729026	0.0137573	0.0182563
19.4404	0.00701103	9.49207e-09	8.63887e-09	7.86785e-09		19.4404	0.00775462	0.0248671	0.0221335	0.0202317
21.7275	0.00711725	1.86594e-10	1.83714e-10	1.81112e-10		21.7275	0.00573629	0.0179125	0.0133549	0.0101842
24.0147	0.0131191	4.18396e-11	4.14316e-11	4.1063e-11		24.0147	0.0141283	0.0939329	0.0905957	0.0882741
26.3018	0.0157217	7.90926e-13	7.54322e-13	7.21244e-13		26.3018	0.00876378	0.0214564	0.0253806	0.0281106
28.5889	0.0168902	2.95437e-14	3.60395e-14	4.19098e-14		28.5889	0.0181649	0.0339609	0.0476283	0.0571366
30.876	0.0237419	1.88735e-15	1.86993e-15	1.85419e-15		30.876	0.0301155	0.076866	0.0721199	0.068818
33.1631	0.0170495	1.7067e-17	2.18895e-17	2.62475e-17		33.1631	0.00924181	0.00560436	0.00830665	0.0101866
35.4502	0.0140752	3.1019e-19	3.1416e-19	3.17748e-19		35.4502	0.0157748	0.0159572	0.017936	0.0193127
37.7373	0.00956049	3.9417e-21	6.50918e-21	8.8294e-21		37.7373	0.0159873	0.0180854	0.0161892	0.01487
40.0244	0.0145001	3.97886e-22	4.74161e-22	5.4309e-22		40.0244	0.0122693	0.0055517	0.00572111	0.00583897
42.3115	0.00446156	1.60978e-24	1.5221e-24	1.44286e-24		42.3115	0.0106759	0.00617783	0.00468466	0.00364587
44.5986	0.00350551	5.87858e-26	5.73175e-26	5.59906e-26		44.5986	0.00334617	0.0022661	0.00204759	0.00189556
46.8857	0.00419599	5.85212e-28	7.34908e-28	8.70188e-28		46.8857	0.00509893	0.00269218	0.00249914	0.00236484
49.1729	0.00509893	8.58478e-30	8.15049e-30	7.75802e-30		49.1729	0.00292126	0.000678899	0.00055707	0.000472314
51.46	0.00350551	1.89267e-32	7.39361e-32	1.23648e-31		51.46	0.00286815	0.00148116	0.00125693	0.00110094
53.7471	0.00637366	1.61122e-33	1.9056e-33	2.17163e-33		53.7471	0.00573629	0.00124047	0.00108425	0.000975575
56.0342	0.00637366	1.12499e-34	1.07029e-34	1.02085e-34		56.0342	0.00637366	0.00466192	0.00382906	0.00324963
58.3213	0.00674546	8.90657e-37	8.43392e-37	8.00678e-37		58.3213	0.0038242	0.000797926	0.000944506	0.00104648
60.6084	0.0038242	6.13404e-39	6.77479e-39	7.35383e-39		60.6084	0.00674546	0.00282658	0.00228725	0.00191203
62.8955	0.00605498	3.69968e-39	3.93886e-39	4.155e-39		62.8955	0.00924181	0.00185738	0.00163498	0.00148026
65.1826	0.00446156	3.65761e-41	3.5365e-41	3.42705e-41		65.1826	0.0038242	0.000277241	0.000233228	0.000202609
67.4697	0.00515204	6.06822e-43	8.42739e-43	1.05594e-42		67.4697	0.0038242	0.000306984	0.000340916	0.000364522
69.7568	0.00111539	2.05083e-45	2.01122e-45	1.97543e-45		69.7568	0.00260258	8.55663e-05	7.66798e-05	7.04975e-05
72.044	0.0019121	4.58963e-46	5.19946e-46	5.75057e-46		72.044	0.00223078	0.000135396	0.00012405	0.000116157
74.3311	0.000106228	4.78295e-54	4.54099e-54	4.32233e-54		74.3311	0.000902935	6.37845e-06	2.97655e-05	4.60357e-05
76.6182	0.000478025	1.03002e-50	1.62581e-50	2.16421e-50		76.6182	0	0	0	0
78.9053	0	0	0	0		78.9053	0.000478025	1.53488e-05	1.61368e-05	1.66851e-05
81.1924	0.000159342	8.91855e-61	4.90735e-54	9.3421e-54		81.1924	0	0	0	0
83.4795	0.000106228	7.3125e-61	6.94257e-61	6.60827e-61		83.4795	0.000159342	1.66447e-12	7.91527e-06	1.34219e-05
85.7666	0.00302749	1.20168e-55	1.23987e-55	1.27439e-55		85.7666	0.00106228	3.30928e-05	3.29225e-05	3.28041e-05
88.0537	0.00403665	5.99575e-57	6.54101e-57	7.03376e-57		88.0537	0.0038242	0.000387227	0.00035691	0.000335818
90.3408	0.00796708	6.61755e-58	6.46094e-58	6.31941e-58		90.3408	0.00578941	0.000588613	0.000479851	0.000404185
92.6279	0.00764839	1.60715e-59	1.43617e-59	1.28166e-59		92.6279	0.00828576	0.000969392	0.000773715	0.000637583
94.9151	0.0105697	5.6033e-61	5.25301e-61	4.93646e-61		94.9151	0.00764839	0.00162035	0.00133221	0.00113175
97.2022	0.00876378	1.71624e-62	1.6373e-62	1.56595e-62		97.2022	0.0128004	0.00261418	0.00231262	0.00210283
99.4893	0.0165715	6.66952e-64	7.393e-64	8.0468e-64		99.4893	0.00748905	0.00181327	0.00173936	0.00168794
101.776	0.0218829	1.61215e-65	1.52236e-65	1.44122e-65		101.776	0.0183774	0.00226039	0.00191591	0.00167626
104.063	0.050405	5.99949e-67	6.5558e-67	7.05854e-67		104.063	0.0227858	0.00214773	0.00227018	0.00235537
106.351	0.048068	1.31956e-68	1.5838e-68	1.8226e-68		106.351	0.0580534	0.00402132	0.00343889	0.00303369
108.638	0.0308591	3.93922e-70	4.29334e-70	4.61335e-70		108.638	0.0470589	0.00189916	0.00191782	0.0019308
110.925	0.008631	2.50222e-72	2.50573e-72	2.5089e-72		110.925	0.0206613	0.00143287	0.00133375	0.0012648
113.212	0	0	0	0		113.212	0.00470057	0.000137961	9.04502e-05	5.73974e-05
115.499	0	0	0	0		115.499	0	0	0	0
