Total Quantum Conductivity (W/m-K) = 	235.579	247.791	260.003
Total Classical Conductivity (W/m-K) = 	358680	432794	506909

Quantum <(Delta/omega)^2>^1/2 = 	0.00704482
Quantum <(Gamma/omega)^2>^1/2 = 	0.000182462

Classical <(Delta/omega)^2>^1/2 = 	0.000179667
Classical <(Gamma/omega)^2>^1/2 = 	7.56422e-06

Quantum effective MFP (nm) = 	3.51021e+06	3.5352e+06	3.55816e+06
Classical effective MFP (nm) = 	109501	126788	142731

Quantum RMS Displacements in Angstroms
Atom 0:
  0.0488431  0.0488365  0.0488515  :  0.0845997
Atom 1:
  0.0488294  0.0488359  0.0488209  :  0.0845738
Average Quantum RMS Displacement = 0.0845868

Classical RMS Displacements in Angstroms
Atom 0:
  0.0101741  0.0101728  0.0101772  :  0.0176231
Atom 1:
  0.0101727  0.010174  0.0101696  :  0.0176186
Average Classical RMS Displacement = 0.0176209



Density of States and Frequency Dependence of Thermal Conductivity
Quantum						Classical
Anharm Freq (1/ps)	DOS (area = 1e12)	k-DOS (area = 1e12)		Anharm Freq (1/ps)	DOS (area = 1e12)	k-DOS (area = 1e12)
1.14355	0	0	0	0		1.14355	0	0	0	0
3.43066	0	0	0	0		3.43066	0	0	0	0
5.71777	0.000743594	0.429665	0.408731	0.389763		5.71777	0	0	0	0
8.00488	0.000637366	1.57103e-08	0.0235398	0.0448683		8.00488	0.000743594	0.0177233	0.0146433	0.012464
10.292	0.000637366	0.00705578	0.00447203	0.00213099		10.292	0.00127473	0.00139351	0.00107312	0.000846414
12.5791	0.0046209	0.000502199	0.000483143	0.000465878		12.5791	0.00302749	0.013157	0.0122334	0.0115799
14.8662	0.00318683	9.40688e-06	7.02169e-06	4.86055e-06		14.8662	0.00286815	0.0166692	0.0186594	0.0200677
17.1533	0.00647989	2.22811e-07	2.08172e-07	1.94909e-07		17.1533	0.0019121	0.00855528	0.0115474	0.0136645
19.4404	0.00701103	1.07746e-08	9.46673e-09	8.28172e-09		19.4404	0.00775462	0.0302662	0.0284016	0.0270822
21.7275	0.00711725	1.93016e-10	1.90359e-10	1.87952e-10		21.7275	0.00573629	0.0143885	0.0110696	0.00872115
24.0147	0.0131191	4.31906e-11	4.28328e-11	4.25086e-11		24.0147	0.0141283	0.0684524	0.0778242	0.0844556
26.3018	0.0157217	8.65578e-13	8.44083e-13	8.24607e-13		26.3018	0.00876378	0.0344956	0.0404906	0.0447326
28.5889	0.0168902	3.35411e-14	3.96816e-14	4.52452e-14		28.5889	0.0181649	0.0229719	0.0306792	0.0361327
30.876	0.0237419	2.69198e-15	2.53866e-15	2.39974e-15		30.876	0.0301155	0.0794731	0.071921	0.0665773
33.1631	0.0170495	2.43338e-17	3.06721e-17	3.64149e-17		33.1631	0.00924181	0.00640143	0.00827353	0.00959819
35.4502	0.0140752	7.53866e-19	7.37908e-19	7.23449e-19		35.4502	0.0157748	0.015256	0.0160977	0.0166933
37.7373	0.00956049	1.39974e-20	1.57146e-20	1.72705e-20		37.7373	0.0159873	0.0303371	0.0247539	0.0208034
40.0244	0.0145001	1.34336e-21	1.42627e-21	1.5014e-21		40.0244	0.0122693	0.00731273	0.00706481	0.00688939
42.3115	0.00446156	1.12474e-23	1.0678e-23	1.01621e-23		42.3115	0.0106759	0.0082016	0.00628637	0.00493118
44.5986	0.00350551	5.11361e-25	5.43714e-25	5.73028e-25		44.5986	0.00334617	0.00424433	0.00377297	0.00343944
46.8857	0.00419599	1.11503e-26	1.50152e-26	1.8517e-26		46.8857	0.00509893	0.00318024	0.00286102	0.00263514
49.1729	0.00509893	1.22044e-28	1.16029e-28	1.10579e-28		49.1729	0.00292126	0.0012083	0.00100141	0.000855017
51.46	0.00350551	4.77486e-32	1.35048e-30	2.53083e-30		51.46	0.00286815	0.00156678	0.00145862	0.00138209
53.7471	0.00637366	5.34827e-33	6.64024e-33	7.81084e-33		53.7471	0.00573629	0.0016369	0.00154497	0.00147993
56.0342	0.00637366	1.2747e-33	1.1284e-33	9.95835e-34		56.0342	0.00637366	0.00750627	0.00618962	0.00525799
58.3213	0.00674546	6.6693e-36	6.33949e-36	6.04065e-36		58.3213	0.0038242	0.00221646	0.00225713	0.0022859
60.6084	0.0038242	1.66657e-38	1.73817e-38	1.80304e-38		60.6084	0.00674546	0.0057456	0.0046828	0.00393078
62.8955	0.00605498	1.61871e-38	1.68805e-38	1.75087e-38		62.8955	0.00924181	0.00380421	0.00343822	0.00317926
65.1826	0.00446156	6.91054e-41	6.84487e-41	6.78537e-41		65.1826	0.0038242	0.000493524	0.000422241	0.000371802
67.4697	0.00515204	3.33616e-42	3.98347e-42	4.56997e-42		67.4697	0.0038242	0.00036751	0.000483469	0.00056552
69.7568	0.00111539	6.52097e-45	6.82938e-45	7.10881e-45		69.7568	0.00260258	0.000111148	9.69149e-05	8.68435e-05
72.044	0.0019121	2.13216e-46	4.25977e-46	6.18751e-46		72.044	0.00223078	0.000268763	0.000262909	0.000258767
74.3311	0.000106228	1.66503e-53	1.58297e-53	1.50862e-53		74.3311	0.000902935	6.91404e-06	2.72594e-05	4.16555e-05
76.6182	0.000478025	8.23468e-51	1.35596e-50	1.83844e-50		76.6182	0	0	0	0
78.9053	0	0	0	0		78.9053	0.000478025	7.91644e-06	9.08586e-06	9.91333e-06
81.1924	0.000159342	2.29384e-60	1.26395e-53	2.40917e-53		81.1924	0	0	0	0
83.4795	0.000106228	2.71904e-60	2.58504e-60	2.46362e-60		83.4795	0.000159342	6.14576e-12	2.95187e-05	5.04056e-05
85.7666	0.00302749	1.40842e-55	1.47587e-55	1.53698e-55		85.7666	0.00106228	3.62974e-05	3.97951e-05	4.227e-05
88.0537	0.00403665	7.14608e-57	8.90299e-57	1.04949e-56		88.0537	0.0038242	0.00120054	0.001151	0.00111595
90.3408	0.00796708	7.44933e-58	7.36535e-58	7.28926e-58		90.3408	0.00578941	0.00205313	0.00178719	0.00159901
92.6279	0.00764839	3.3213e-59	2.64171e-59	2.02596e-59		92.6279	0.00828576	0.00253282	0.00219946	0.00196357
94.9151	0.0105697	5.07547e-61	4.7365e-61	4.42938e-61		94.9151	0.00764839	0.00152176	0.00125368	0.00106398
97.2022	0.00876378	1.55516e-62	1.46273e-62	1.37898e-62		97.2022	0.0128004	0.00445747	0.00404664	0.00375595
99.4893	0.0165715	7.48956e-64	9.24575e-64	1.0837e-63		99.4893	0.00748905	0.00307745	0.00312581	0.00316003
101.776	0.0218829	2.57105e-65	2.40628e-65	2.257e-65		101.776	0.0183774	0.00318456	0.0027892	0.00250945
104.063	0.050405	8.17193e-67	9.04154e-67	9.82945e-67		104.063	0.0227858	0.00241222	0.00258552	0.00270815
106.351	0.048068	1.1196e-68	1.62252e-68	2.07819e-68		106.351	0.0580534	0.00393378	0.0037562	0.00363055
108.638	0.0308591	3.44984e-70	4.52186e-70	5.49317e-70		108.638	0.0470589	0.00290695	0.00285301	0.00281485
110.925	0.008631	3.71536e-72	3.90287e-72	4.07277e-72		110.925	0.0206613	0.00226834	0.00194306	0.0017129
113.212	0	0	0	0		113.212	0.00470057	0.000227845	0.000145052	8.64691e-05
115.499	0	0	0	0		115.499	0	0	0	0
