Total Quantum Conductivity (W/m-K) = 	6.4817	6.83765	7.1936
Total Classical Conductivity (W/m-K) = 	24944.7	27649.8	30355

Quantum <(Delta/omega)^2>^1/2 = 	0.00683798
Quantum <(Gamma/omega)^2>^1/2 = 	0.000224612

Classical <(Delta/omega)^2>^1/2 = 	0.000176293
Classical <(Gamma/omega)^2>^1/2 = 	1.06703e-05

Quantum effective MFP (nm) = 	96746.9	97721.2	98616
Classical effective MFP (nm) = 	7615.31	8099.99	8547.02

Quantum RMS Displacements in Angstroms
Atom 0:
  0.0488373  0.0488308  0.0488457  :  0.0845898
Atom 1:
  0.0488236  0.0488302  0.0488152  :  0.0845639
Average Quantum RMS Displacement = 0.0845769

Classical RMS Displacements in Angstroms
Atom 0:
  0.0101741  0.0101728  0.0101772  :  0.0176231
Atom 1:
  0.0101727  0.010174  0.0101696  :  0.0176185
Average Classical RMS Displacement = 0.0176208



Density of States and Frequency Dependence of Thermal Conductivity
Quantum						Classical
Anharm Freq (1/ps)	DOS (area = 1e12)	k-DOS (area = 1e12)		Anharm Freq (1/ps)	DOS (area = 1e12)	k-DOS (area = 1e12)
1.14356	0	0	0	0		1.14356	0	0	0	0
3.43069	0	0	0	0		3.43069	0	0	0	0
5.71781	0.000743589	0.430623	0.407496	0.386658		5.71781	0	0	0	0
8.00493	0.000637362	1.69996e-08	0.025397	0.0482805		8.00493	0.000743589	0.0161377	0.014442	0.0130485
10.2921	0.000637362	0.00609075	0.00384912	0.00182933		10.2921	0.00127472	0.00733245	0.0124048	0.0165731
12.5792	0.00462088	0.000508003	0.000481964	0.000458502		12.5792	0.00302747	0.0309411	0.0291025	0.0275916
14.8663	0.00318681	8.00601e-06	5.99649e-06	4.18584e-06		14.8663	0.00286813	0.0105402	0.0193097	0.0265162
17.1534	0.00520512	2.00995e-07	1.85724e-07	1.71965e-07		17.1534	0.00191209	0.00493811	0.00788181	0.0103008
19.4405	0.00828571	2.14453e-08	2.00123e-08	1.87212e-08		19.4405	0.00775457	0.0338236	0.0294547	0.0258644
21.7277	0.00711721	1.43372e-10	1.40261e-10	1.37457e-10		21.7277	0.00573626	0.0256248	0.0255625	0.0255112
24.0148	0.013119	3.13093e-11	3.07715e-11	3.02869e-11		24.0148	0.0141282	0.0533508	0.0512433	0.0495113
26.3019	0.0157216	5.56859e-13	5.35435e-13	5.16131e-13		26.3019	0.00876373	0.0256358	0.0238656	0.0224109
28.589	0.0168901	2.155e-14	2.5858e-14	2.97396e-14		28.589	0.0181648	0.029723	0.0329886	0.0356722
30.8762	0.022467	1.60278e-15	1.57716e-15	1.55407e-15		30.8762	0.0301154	0.0647703	0.0589353	0.0541402
33.1633	0.0183242	1.73465e-17	2.0677e-17	2.36779e-17		33.1633	0.00924175	0.0148336	0.0152332	0.0155615
35.4504	0.0140751	3.12486e-19	3.07152e-19	3.02346e-19		35.4504	0.0157747	0.0280929	0.0292024	0.0301141
37.7375	0.00956043	8.49312e-21	9.66659e-21	1.07239e-20		37.7375	0.0159872	0.0222079	0.020775	0.0195974
40.0247	0.0132253	3.29578e-22	3.95769e-22	4.5541e-22		40.0247	0.0122692	0.0113708	0.0115946	0.0117786
42.3118	0.00573626	3.53105e-24	3.34488e-24	3.17715e-24		42.3118	0.0106758	0.00938382	0.00811725	0.00707643
44.5989	0.00350549	9.66645e-26	1.22544e-25	1.45862e-25		44.5989	0.00334615	0.00256223	0.00279658	0.00298917
46.886	0.00419597	3.38947e-27	3.8883e-27	4.33777e-27		46.886	0.0050989	0.00619192	0.00590985	0.00567804
49.1732	0.0050989	4.6467e-29	4.4048e-29	4.18685e-29		49.1732	0.00292124	0.00275067	0.00248156	0.00226042
51.4603	0.00350549	3.01365e-31	5.50346e-31	7.74686e-31		51.4603	0.00286813	0.00271296	0.00282711	0.00292092
53.7474	0.00637362	2.50977e-32	2.86452e-32	3.18416e-32		53.7474	0.00573626	0.00414865	0.00387516	0.00365041
56.0345	0.00637362	7.94681e-34	7.67592e-34	7.43184e-34		56.0345	0.00637362	0.00375696	0.00335497	0.00302462
58.3216	0.00674542	1.2169e-35	1.14727e-35	1.08453e-35		58.3216	0.00382417	0.00175112	0.00196334	0.00213773
60.6088	0.00382417	1.02491e-37	1.13697e-37	1.23794e-37		60.6088	0.00674542	0.00318682	0.00283083	0.00253829
62.8959	0.00605494	4.19406e-38	4.79934e-38	5.34472e-38		62.8959	0.00924175	0.00323063	0.00346792	0.00366292
65.183	0.00446154	5.4707e-40	5.27488e-40	5.09843e-40		65.183	0.00382417	0.000966032	0.000888814	0.000825359
67.4701	0.00515201	1.21207e-41	1.46048e-41	1.68429e-41		67.4701	0.00382417	0.00108891	0.0012166	0.00132153
69.7573	0.00111538	2.23483e-44	2.16491e-44	2.10191e-44		69.7573	0.00260256	0.000415336	0.000392829	0.000374334
72.0444	0.00191209	3.64726e-45	4.83797e-45	5.91084e-45		72.0444	0.00223077	0.000344497	0.0003446	0.000344685
74.3315	0.000106227	2.94005e-53	2.78699e-53	2.64909e-53		74.3315	0.00090293	2.13602e-05	0.000114235	0.000190556
76.6186	0.000478022	4.98647e-49	7.58585e-49	9.92798e-49		76.6186	0	0	0	0
78.9058	0	0	0	0		78.9058	0.000478022	5.82624e-05	7.9487e-05	9.69287e-05
81.1929	0.000159341	1.48569e-59	8.16196e-53	1.55162e-52		81.1929	0	0	0	0
83.48	0.000106227	2.33411e-60	2.2126e-60	2.10312e-60		83.48	0.000159341	3.44584e-12	1.80161e-05	3.28211e-05
85.7671	0.00302747	2.53163e-54	2.74964e-54	2.94607e-54		85.7671	0.00106227	6.31859e-05	7.21533e-05	7.95225e-05
88.0542	0.00403663	1.08203e-55	1.09436e-55	1.10546e-55		88.0542	0.00382417	0.00048349	0.000461368	0.00044319
90.3414	0.00796703	1.02188e-56	1.00363e-56	9.87186e-57		90.3414	0.00578937	0.000918121	0.000838114	0.000772367
92.6285	0.00764835	2.77425e-58	2.70061e-58	2.63426e-58		92.6285	0.00828571	0.00145375	0.0013949	0.00134653
94.9156	0.0105696	9.50945e-60	8.91734e-60	8.38383e-60		94.9156	0.00764835	0.0014516	0.00136863	0.00130045
97.2027	0.00876373	3.68792e-61	3.60126e-61	3.52318e-61		97.2027	0.0128004	0.00264345	0.00229653	0.00201144
99.4899	0.0165714	7.42848e-63	7.47217e-63	7.51155e-63		99.4899	0.00748901	0.000895297	0.000919875	0.000940072
101.777	0.0218828	2.41981e-64	2.18734e-64	1.97788e-64		101.777	0.0183773	0.00195337	0.00176541	0.00161095
104.064	0.0497674	6.91266e-66	7.67571e-66	8.36325e-66		104.064	0.0227857	0.00109816	0.00126375	0.00139982
106.351	0.0487051	2.31772e-67	2.46604e-67	2.59969e-67		106.351	0.0580531	0.00225539	0.00211162	0.00199347
108.638	0.030859	5.15672e-69	5.18919e-69	5.21846e-69		108.638	0.0470586	0.0015975	0.00152129	0.00145867
110.925	0.00863095	2.86915e-71	2.50298e-71	2.17305e-71		110.925	0.0206612	0.000483083	0.000496266	0.0005071
113.213	0	0	0	0		113.213	0.00470055	4.07682e-05	4.56359e-05	4.96359e-05
115.5	0	0	0	0		115.5	0	0	0	0
