Total Quantum Conductivity (W/m-K) = 	189.507	199.321	209.136
Total Classical Conductivity (W/m-K) = 	199472	244206	288940

Quantum <(Delta/omega)^2>^1/2 = 	0.00704595
Quantum <(Gamma/omega)^2>^1/2 = 	0.000185318

Classical <(Delta/omega)^2>^1/2 = 	0.000179623
Classical <(Gamma/omega)^2>^1/2 = 	7.7023e-06

Quantum effective MFP (nm) = 	2.82372e+06	2.84369e+06	2.86204e+06
Classical effective MFP (nm) = 	60896.6	71540.3	81357.1

Quantum RMS Displacements in Angstroms
Atom 0:
  0.0488431  0.0488366  0.0488515  :  0.0845998
Atom 1:
  0.0488294  0.048836  0.048821  :  0.084574
Average Quantum RMS Displacement = 0.0845869

Classical RMS Displacements in Angstroms
Atom 0:
  0.0101741  0.0101728  0.0101772  :  0.0176231
Atom 1:
  0.0101727  0.010174  0.0101696  :  0.0176186
Average Classical RMS Displacement = 0.0176209



Density of States and Frequency Dependence of Thermal Conductivity
Quantum						Classical
Anharm Freq (1/ps)	DOS (area = 1e12)	k-DOS (area = 1e12)		Anharm Freq (1/ps)	DOS (area = 1e12)	k-DOS (area = 1e12)
1.14355	0	0	0	0		1.14355	0	0	0	0
3.43066	0	0	0	0		3.43066	0	0	0	0
5.71777	0.000743594	0.429821	0.408672	0.389508		5.71777	0	0	0	0
8.00488	0.000637366	1.58147e-08	0.0236973	0.0451705		8.00488	0.000743594	0.016565	0.0134893	0.011366
10.292	0.000637366	0.00689744	0.00437187	0.00208335		10.292	0.00127473	0.00159602	0.00131212	0.00111612
12.5791	0.0046209	0.000505561	0.000485163	0.00046668		12.5791	0.00302749	0.0181798	0.0171045	0.0163622
14.8662	0.00318683	9.25534e-06	6.91508e-06	4.79447e-06		14.8662	0.00286815	0.0189799	0.0226793	0.0252332
17.1533	0.00647989	2.16157e-07	2.01497e-07	1.88214e-07		17.1533	0.0019121	0.0106187	0.0130517	0.0147314
19.4404	0.00701103	1.06747e-08	9.39739e-09	8.23996e-09		19.4404	0.00775462	0.030212	0.028831	0.0278777
21.7275	0.00711725	1.93153e-10	1.90489e-10	1.88075e-10		21.7275	0.00573629	0.0193685	0.0139369	0.0101871
24.0147	0.0131191	4.32471e-11	4.28936e-11	4.25732e-11		24.0147	0.0141283	0.0682684	0.0755666	0.080605
26.3018	0.0157217	8.63657e-13	8.40257e-13	8.19053e-13		26.3018	0.00876378	0.030326	0.0357998	0.0395787
28.5889	0.0168902	3.20912e-14	3.85621e-14	4.44257e-14		28.5889	0.0181649	0.0248259	0.0331114	0.0388314
30.876	0.0237419	2.28239e-15	2.20748e-15	2.1396e-15		30.876	0.0301155	0.0770333	0.0712266	0.067218
33.1631	0.0170495	2.39997e-17	3.03152e-17	3.60379e-17		33.1631	0.00924181	0.0069462	0.00869856	0.00990832
35.4502	0.0140752	6.50868e-19	6.40184e-19	6.30503e-19		35.4502	0.0157748	0.0161667	0.0173229	0.0181211
37.7373	0.00956049	8.68047e-21	1.07167e-20	1.25618e-20		37.7373	0.0159873	0.0247601	0.0207657	0.0180081
40.0244	0.0145001	8.36716e-22	9.4375e-22	1.04074e-21		40.0244	0.0122693	0.00714655	0.00687246	0.00668324
42.3115	0.00446156	7.83115e-24	7.43054e-24	7.06752e-24		42.3115	0.0106759	0.00751851	0.00566016	0.00437723
44.5986	0.00350551	2.80622e-25	2.75095e-25	2.70087e-25		44.5986	0.00334617	0.00348371	0.0030701	0.00278455
46.8857	0.00419599	3.97648e-27	4.33879e-27	4.66709e-27		46.8857	0.00509893	0.00336333	0.00291204	0.00260049
49.1729	0.00509893	3.07257e-29	2.92128e-29	2.78419e-29		49.1729	0.00292126	0.00132275	0.00108046	0.000913188
51.46	0.00350551	2.14439e-32	2.65634e-31	4.86905e-31		51.46	0.00286815	0.00196181	0.00168437	0.00149284
53.7471	0.00637366	1.80813e-33	2.0975e-33	2.35972e-33		53.7471	0.00573629	0.00191992	0.00168324	0.00151985
56.0342	0.00637366	2.00912e-34	1.83619e-34	1.67948e-34		56.0342	0.00637366	0.0080495	0.00657039	0.00554927
58.3213	0.00674546	1.44434e-36	1.37165e-36	1.30578e-36		58.3213	0.0038242	0.0016957	0.00176754	0.00181713
60.6084	0.0038242	7.54404e-39	8.26829e-39	8.92457e-39		60.6084	0.00674546	0.00507543	0.00409024	0.00341011
62.8955	0.00605498	4.75753e-39	5.02234e-39	5.26231e-39		62.8955	0.00924181	0.00305951	0.00272213	0.00248922
65.1826	0.00446156	3.83504e-41	3.75458e-41	3.68168e-41		65.1826	0.0038242	0.000383242	0.000323545	0.000282334
67.4697	0.00515204	9.12175e-43	1.17273e-42	1.40883e-42		67.4697	0.0038242	0.000334623	0.000417343	0.000474449
69.7568	0.00111539	3.06135e-45	3.09374e-45	3.12308e-45		69.7568	0.00260258	0.000110551	9.58187e-05	8.56479e-05
72.044	0.0019121	2.14638e-46	3.13596e-46	4.03265e-46		72.044	0.00223078	0.000207148	0.000191023	0.00017989
74.3311	0.000106228	9.39145e-54	8.92902e-54	8.50999e-54		74.3311	0.000902935	8.37046e-06	2.91716e-05	4.35319e-05
76.6182	0.000478025	1.06136e-50	1.72904e-50	2.33406e-50		76.6182	0	0	0	0
78.9053	0	0	0	0		78.9053	0.000478025	1.22542e-05	1.34893e-05	1.43419e-05
81.1924	0.000159342	1.24105e-60	6.8385e-54	1.30352e-53		81.1924	0	0	0	0
83.4795	0.000106228	1.40598e-60	1.33675e-60	1.27402e-60		83.4795	0.000159342	2.8376e-12	1.34329e-05	2.27064e-05
85.7666	0.00302749	1.36585e-55	1.4354e-55	1.49842e-55		85.7666	0.00106228	2.65885e-05	2.89988e-05	3.06627e-05
88.0537	0.00403665	6.3146e-57	7.00282e-57	7.62645e-57		88.0537	0.0038242	0.00101804	0.000944384	0.000893532
90.3408	0.00796708	7.44672e-58	7.27335e-58	7.11626e-58		90.3408	0.00578941	0.00137747	0.00113356	0.000965184
92.6279	0.00764839	2.23657e-59	1.87623e-59	1.54971e-59		92.6279	0.00828576	0.00193428	0.00158515	0.00134412
94.915	0.0105697	5.43561e-61	5.08929e-61	4.77549e-61		94.915	0.00764839	0.00207468	0.00169425	0.00143163
97.2022	0.00876378	1.69402e-62	1.61102e-62	1.53581e-62		97.2022	0.0128004	0.00373531	0.00335947	0.00310001
99.4893	0.0165715	7.35954e-64	8.7445e-64	9.99946e-64		99.4893	0.00748905	0.00286376	0.00289425	0.00291531
101.776	0.0218829	2.41605e-65	2.263e-65	2.12431e-65		101.776	0.0183774	0.00322206	0.00273256	0.00239462
104.063	0.050405	7.37816e-67	8.04667e-67	8.65243e-67		104.063	0.0227858	0.00256121	0.00267143	0.00274751
106.351	0.048068	1.23056e-68	1.6557e-68	2.04093e-68		106.351	0.0580534	0.00405766	0.00365867	0.00338322
108.638	0.0308591	3.75317e-70	4.60011e-70	5.36756e-70		108.638	0.0470589	0.00259794	0.0025427	0.00250456
110.925	0.008631	3.26422e-72	3.41001e-72	3.54211e-72		110.925	0.0206613	0.00203863	0.00175344	0.00155657
113.212	0	0	0	0		113.212	0.00470057	0.000226029	0.000140736	8.18539e-05
115.499	0	0	0	0		115.499	0	0	0	0
