Total Quantum Conductivity (W/m-K) = 	562.463	562.419	562.463
Total Classical Conductivity (W/m-K) = 	492.387	492.352	492.387

Quantum <(Delta/omega)^2>^1/2 = 	0.0105358
Quantum <(Gamma/omega)^2>^1/2 = 	0.000574951

Classical <(Delta/omega)^2>^1/2 = 	0.00849412
Classical <(Gamma/omega)^2>^1/2 = 	0.000594357

Quantum effective MFP (nm) = 	241.519	241.503	241.519
Classical effective MFP (nm) = 	169.218	169.207	169.218

Quantum RMS Displacements in Angstroms
Atom 0:
  0.0720154  0.0720154  0.0720154  :  0.124734
Atom 1:
  0.0720154  0.0720154  0.0720154  :  0.124734
Average Quantum RMS Displacement = 0.124734

Classical RMS Displacements in Angstroms
Atom 0:
  0.0686091  0.0686091  0.0686091  :  0.118835
Atom 1:
  0.0686091  0.0686091  0.0686091  :  0.118835
Average Classical RMS Displacement = 0.118835



Density of States and Frequency Dependence of Thermal Conductivity
Quantum						Classical
Anharm Freq (1/ps)	DOS (area = 1e12)	k-DOS (area = 1e12)		Anharm Freq (1/ps)	DOS (area = 1e12)	k-DOS (area = 1e12)
1.1367	0	0	0	0		1.1367	0	0	0	0
3.41009	0.000126659	0.0109166	0.0109175	0.0109166		3.41009	0	0	0	0
5.68349	0.000189988	0.0148469	0.0148383	0.0148469		5.68349	0.000221653	0.0198015	0.019803	0.0198015
7.95688	0.000712457	0.0726865	0.0726894	0.0726865		7.95688	0.000189988	0.00905647	0.00904613	0.00905647
10.2303	0.000474971	0.0101513	0.0101477	0.0101513		10.2303	0.000807451	0.0649088	0.0649097	0.0649088
12.5037	0.00202654	0.0323763	0.0323716	0.0323763		12.5037	0.00126659	0.0210384	0.0210373	0.0210384
14.7771	0.00202654	0.0234294	0.0234295	0.0234294		14.7771	0.00104494	0.0163359	0.0163327	0.0163359
17.0505	0.00172573	0.0115935	0.0115935	0.0115935		17.0505	0.0032298	0.0300873	0.0300871	0.0300873
19.3239	0.0043064	0.0242397	0.0242391	0.0242397		19.3239	0.00254901	0.0119267	0.0119265	0.0119267
21.5973	0.00383143	0.0127638	0.012764	0.0127638		21.5973	0.00389476	0.019121	0.0191203	0.019121
23.8707	0.00588964	0.0266099	0.0266108	0.0266099		23.8707	0.00582631	0.0234264	0.0234272	0.0234264
26.144	0.00815367	0.0245591	0.0245597	0.0245591		26.144	0.00626962	0.0174064	0.0174063	0.0174064
28.4174	0.0106077	0.0202265	0.0202273	0.0202265		28.4174	0.00970524	0.0274555	0.0274565	0.0274555
30.6908	0.016054	0.0185451	0.0185462	0.0185451		30.6908	0.0139008	0.0149198	0.0149203	0.0149198
32.9642	0.0174473	0.020887	0.0208882	0.020887		32.9642	0.0143125	0.0167809	0.0167817	0.0167809
35.2376	0.0143916	0.0133512	0.0133521	0.0133512		35.2376	0.0151516	0.0158514	0.0158525	0.0158514
37.511	0.0141541	0.0134163	0.0134172	0.0134163		37.511	0.0147241	0.0140498	0.0140505	0.0140498
39.7844	0.0161174	0.0142875	0.0142886	0.0142875		39.7844	0.016529	0.0144491	0.01445	0.0144491
42.0578	0.0130617	0.0131393	0.0131404	0.0131393		42.0578	0.0142175	0.0129124	0.0129134	0.0129124
44.3312	0.00997439	0.0104749	0.0104758	0.0104749		44.3312	0.0114468	0.0122926	0.0122934	0.0122926
46.6046	0.0102594	0.00847209	0.00847273	0.00847209		46.6046	0.00997439	0.0107922	0.010793	0.0107922
48.878	0.00794785	0.0058636	0.00586405	0.0058636		48.878	0.0120326	0.0103105	0.0103113	0.0103105
51.1514	0.00204238	0.00384109	0.0038414	0.00384109		51.1514	0.00384727	0.00508139	0.00508171	0.00508139
53.4248	0.00303981	0.00406295	0.00406326	0.00406295		53.4248	0.00208987	0.00395246	0.00395274	0.00395246
55.6982	0.00338813	0.00348441	0.00348468	0.00348441		55.6982	0.00310314	0.00465923	0.00465956	0.00465923
57.9716	0.0032773	0.00240914	0.00240934	0.00240914		57.9716	0.00275483	0.00266591	0.00266611	0.00266591
60.245	0.00360978	0.00164435	0.00164449	0.00164435		60.245	0.00403725	0.00305163	0.00305185	0.00305163
62.5184	0.005478	0.0017818	0.00178195	0.0017818		62.5184	0.00405309	0.00181506	0.0018152	0.00181506
64.7918	0.00574715	0.00120481	0.00120491	0.00120481		64.7918	0.00446473	0.00130532	0.00130543	0.00130532
67.0652	0.00576298	0.000641341	0.000641401	0.000641341		67.0652	0.00669709	0.00158598	0.0015861	0.00158598
69.3386	0.0107343	0.000941759	0.000941843	0.000941759		69.3386	0.0087078	0.00136223	0.00136235	0.00136223
71.612	0.0105602	0.000681144	0.0006812	0.000681144		71.612	0.0123492	0.000851895	0.000851972	0.000851895
73.8854	0.00389476	0.000400216	0.000400253	0.000400216		73.8854	0.00619046	0.000649963	0.000650008	0.000649963
76.1587	0.00208987	0.000280757	0.000280781	0.000280757		76.1587	0.00237486	0.000465545	0.000465582	0.000465545
78.4321	0.00299232	0.000254392	0.000254416	0.000254392		78.4321	0.00223236	0.000399738	0.000399772	0.000399738
80.7055	0.00788452	0.000664202	0.000664275	0.000664202		80.7055	0.00531968	0.000497323	0.000497366	0.000497323
82.9789	0.0104969	0.0016799	0.00168009	0.0016799		82.9789	0.0082645	0.00155847	0.0015586	0.00155847
85.2523	0.00937276	0.00285212	0.00285237	0.00285212		85.2523	0.0113201	0.00406799	0.00406838	0.00406799
87.5257	0.00604796	0.00237487	0.00237509	0.00237487		87.5257	0.00750454	0.00474416	0.00474461	0.00474416
89.7991	0.0065071	0.00234009	0.00234027	0.00234009		89.7991	0.00676042	0.00469536	0.00469569	0.00469536
92.0725	0.00595297	0.00165355	0.00165366	0.00165355		92.0725	0.00550966	0.00354154	0.00354176	0.00354154
94.3459	0.00470221	0.000955764	0.000955821	0.000955764		94.3459	0.00514552	0.00253093	0.00253109	0.00253093
96.6193	0.00424307	0.000690739	0.000690785	0.000690739		96.6193	0.00569965	0.00210196	0.00210209	0.00210196
98.8927	0.0169565	0.000519542	0.000519577	0.000519542		98.8927	0.00647544	0.00102169	0.00102176	0.00102169
101.166	0.0452331	0.000707864	0.00070791	0.000707864		101.166	0.0330263	0.00128393	0.001284	0.00128393
103.439	0.0477029	0.000546672	0.000546702	0.000546672		103.439	0.0463097	0.00139771	0.00139778	0.00139771
105.713	0.0310631	0.000281457	0.000281468	0.000281457		105.713	0.0421616	0.00101181	0.00101186	0.00101181
107.986	0.0149458	0.000115712	0.000115713	0.000115712		107.986	0.0222445	0.000464024	0.000464033	0.000464024
110.26	0.00664168	2.33046e-05	2.33019e-05	2.33046e-05		110.26	0.0116685	0.000173662	0.000173658	0.000173662
112.533	0	0	0	0		112.533	0.00224028	1.0752e-05	1.07493e-05	1.0752e-05
114.806	0	0	0	0		114.806	0	0	0	0
